33, 1001
Michael A Robinson, Chris Jernigan, Subi Thakali
NOAA ESRL Chemical Sciences Laboratory and CIRES, U. of Colorado
NOAA Iodide CIMS Instrument
USOS
1, 1
2024, 07, 25, 2024, 07, 26
1
starttime_UTC, seconds_past_midnight, seconds_of_day_since_00:00:00_UTC
1
1
-9999
N2O5_NOAACIMS, pptv, Gas_N2O5_InSitu_S_AVMR, 
0
18
PI_CONTACT_INFO: 325 Broadway, R/CSD 7, Boulder, Colorado 80305; michael.a.robinson@noaa.gov; chris.jernigan@noaa.gov;
PLATFORM: NOAA CSL Mobile Lab
LOCATION: SLC, Utah
ASSOCIATED_DATA: 1Hz data also available on request.
INSTRUMENT_INFO: NOAA I- ToF CIMS
DATA_INFO: All data in parts per trillion by volume (pptv). 1 Hz data is available upon request.
UNCERTAINTY: TBD
ULOD_FLAG: -7777
ULOD_VALUE: N/A
LLOD_FLAG: -8888
LLOD_VALUE: N/A
DM_CONTACT_INFO: Nathan Howard; nathan.h.howard@noaa.gov
PROJECT_INFO: USOS, summer 2024. https://csl.noaa.gov/groups/csl7/measurements/2024usos/
STIPULATIONS_ON_USE: Users are strongly encouraged to contact the PI for proper data usage.
OTHER_COMMENTS: 
REVISION: RA
RA: Preliminary Data; For in-field use only
starttime_UTC, N2O5_NOAACIMS
     0, -9999.000
    60, -9999.000
   120, -9999.000
   180, -9999.000
   240, -9999.000
   300, -9999.000
   360, -9999.000
   420, -9999.000
   480, -9999.000
   540, -9999.000
   600, -9999.000
   660, -9999.000
   720, -9999.000
   780, -9999.000
   840, -9999.000
   900, -9999.000
   960, -9999.000
  1020, -9999.000
  1080, -9999.000
  1140, -9999.000
  1200, -9999.000
  1260, -9999.000
  1320, -9999.000
  1380, -9999.000
  1440, -9999.000
  1500, -9999.000
  1560, -9999.000
  1620, -9999.000
  1680, -9999.000
  1740, -9999.000
  1800, -9999.000
  1860, -9999.000
  1920, -9999.000
  1980, -9999.000
  2040, -9999.000
  2100, -9999.000
  2160, -9999.000
  2220, -9999.000
  2280, -9999.000
  2340, -9999.000
  2400, -9999.000
  2460, -9999.000
  2520, -9999.000
  2580, -9999.000
  2640, -9999.000
  2700, -9999.000
  2760, -9999.000
  2820, -9999.000
  2880, -9999.000
  2940, -9999.000
  3000, -9999.000
  3060, -9999.000
  3120, -9999.000
  3180, -9999.000
  3240, -9999.000
  3300, -9999.000
  3360, -9999.000
  3420, -9999.000
  3480, -9999.000
  3540, -9999.000
  3600, -9999.000
  3660, -9999.000
  3720, -9999.000
  3780, -9999.000
  3840, -9999.000
  3900, -9999.000
  3960, -9999.000
  4020, -9999.000
  4080, -9999.000
  4140, -9999.000
  4200, -9999.000
  4260, -9999.000
  4320, -9999.000
  4380, -9999.000
  4440, -9999.000
  4500, -9999.000
  4560, -9999.000
  4620, -9999.000
  4680, -9999.000
  4740, -9999.000
  4800, -9999.000
  4860, -9999.000
  4920, -9999.000
  4980, -9999.000
  5040, -9999.000
  5100, -9999.000
  5160, -9999.000
  5220, -9999.000
  5280, -9999.000
  5340, -9999.000
  5400,  1.969
  5460,  1.958
  5520,  1.907
  5580,  2.250
  5640,  2.586
  5700,  2.354
  5760,  2.405
  5820,  2.593
  5880, -9999.000
  5940,  2.258
  6000,  2.503
  6060,  2.742
  6120,  2.651
  6180,  2.650
  6240,  2.840
  6300,  2.953
  6360,  3.356
  6420,  3.330
  6480,  3.369
  6540,  3.782
  6600,  2.994
  6660,  3.390
  6720,  3.284
  6780,  3.749
  6840,  3.422
  6900,  3.613
  6960,  3.437
  7020,  3.537
  7080,  3.789
  7140,  4.088
  7200,  4.191
  7260,  3.940
  7320,  4.000
  7380,  3.884
  7440,  4.423
  7500,  4.373
  7560,  4.659
  7620,  4.627
  7680,  4.396
  7740,  4.742
  7800,  5.102
  7860,  4.989
  7920,  4.870
  7980,  5.617
  8040,  6.012
  8100,  5.815
  8160,  5.548
  8220,  5.912
  8280,  6.139
  8340,  6.216
  8400,  5.873
  8460,  5.950
  8520,  5.494
  8580,  6.275
  8640,  5.167
  8700,  5.555
  8760,  7.101
  8820,  6.500
  8880,  7.035
  8940,  8.421
  9000,  6.628
  9060,  6.762
  9120,  7.130
  9180,  7.165
  9240,  6.471
  9300,  5.105
  9360,  4.107
  9420,  4.560
  9480,  3.765
  9540,  4.001
  9600, -9999.000
  9660,  3.728
  9720,  3.848
  9780,  3.286
  9840,  3.558
  9900,  3.042
  9960,  3.374
 10020,  3.131
 10080,  3.415
 10140,  3.279
 10200,  3.093
 10260,  2.758
 10320,  3.319
 10380,  2.998
 10440,  3.891
 10500,  2.982
 10560,  2.348
 10620,  2.943
 10680,  2.639
 10740,  2.197
 10800,  2.405
 10860,  2.251
 10920,  2.258
 10980,  1.866
 11040,  2.241
 11100,  1.668
 11160,  1.805
 11220,  1.512
 11280,  1.802
 11340,  1.597
 11400,  1.676
 11460,  1.683
 11520,  1.725
 11580,  1.770
 11640,  1.985
 11700,  1.646
 11760,  1.889
 11820,  1.905
 11880,  2.081
 11940,  2.042
 12000,  2.133
 12060,  2.089
 12120,  2.545
 12180,  2.828
 12240,  1.925
 12300,  2.504
 12360,  2.470
 12420,  2.448
 12480,  3.368
 12540,  3.546
 12600,  2.915
 12660,  3.388
 12720,  3.829
 12780,  4.167
 12840,  3.938
 12900,  8.766
 12960, 11.890
 13020,  9.036
 13080, 10.561
 13140, 11.346
 13200, 13.135
 13260, 14.815
 13320, 22.098
 13380, 22.477
 13440, 23.333
 13500, 22.126
 13560, 20.495
 13620, 20.658
 13680, 19.108
 13740, 24.115
 13800, 11.648
 13860, 11.988
 13920, 11.966
 13980, 11.040
 14040, 10.809
 14100,  9.772
 14160,  8.479
 14220,  9.074
 14280,  9.934
 14340,  9.672
 14400, 10.194
 14460, 11.129
 14520, 13.177
 14580, 14.277
 14640, 13.974
 14700, 12.401
 14760, 11.296
 14820, 10.735
 14880, 11.039
 14940, 10.589
 15000, 13.494
 15060, 14.031
 15120, 13.104
 15180, 13.895
 15240, 14.116
 15300, 13.524
 15360, 15.590
 15420, 15.378
 15480, 14.527
 15540, 16.985
 15600, 15.596
 15660, 18.289
 15720, 14.008
 15780, 16.809
 15840, 21.366
 15900, 21.416
 15960, 25.127
 16020, 25.470
 16080, 24.434
 16140, 17.460
 16200, 19.192
 16260, 21.742
 16320, 15.623
 16380, 15.536
 16440, 16.700
 16500, 16.867
 16560, 17.691
 16620, 19.314
 16680, 20.476
 16740, 21.028
 16800, 24.028
 16860, 24.406
 16920, 23.140
 16980, -9999.000
 17040, 21.921
 17100, 22.592
 17160, 19.605
 17220, 22.862
 17280, 25.255
 17340, 28.657
 17400, 26.717
 17460, 21.254
 17520, 25.155
 17580, 28.208
 17640, 24.497
 17700, 20.895
 17760, 22.270
 17820, 22.393
 17880, 20.197
 17940, 19.295
 18000, 19.012
 18060, 18.358
 18120, 25.311
 18180, 26.744
 18240, 28.022
 18300, 26.753
 18360, 21.394
 18420, 25.325
 18480, 18.861
 18540, 26.363
 18600, 23.951
 18660, 20.409
 18720, 18.772
 18780, 18.237
 18840, -9999.000
 18900, 22.759
 18960, 21.932
 19020, 23.464
 19080, 24.943
 19140, 27.570
 19200, 27.843
 19260, 19.323
 19320, 20.876
 19380, 24.481
 19440, 26.849
 19500, 26.343
 19560, 23.760
 19620, 20.951
 19680, 20.694
 19740, 21.856
 19800, 21.198
 19860, 24.596
 19920, 24.971
 19980, 26.876
 20040, 29.305
 20100, 27.749
 20160, 25.133
 20220, 24.700
 20280, 24.219
 20340, 21.249
 20400, 23.854
 20460, 24.837
 20520, 25.856
 20580, 22.154
 20640, 20.240
 20700, -9999.000
 20760, 19.338
 20820, 24.057
 20880, 23.501
 20940, 22.830
 21000, 24.490
 21060, 24.949
 21120, 25.528
 21180, 28.235
 21240, 22.400
 21300, 22.880
 21360, 26.588
 21420, 24.989
 21480, 24.725
 21540, 22.790
 21600, 20.939
 21660, 19.993
 21720, 19.474
 21780, 20.056
 21840, 19.139
 21900, 18.634
 21960, 16.823
 22020, 15.185
 22080, 16.701
 22140, 18.321
 22200, 17.717
 22260, 16.179
 22320, 16.558
 22380, 16.659
 22440, 15.795
 22500, 15.272
 22560, 13.410
 22620, 14.815
 22680, 14.689
 22740, 14.215
 22800, 14.564
 22860, 13.725
 22920, 16.080
 22980, 17.676
 23040, 20.620
 23100, 19.821
 23160, 22.611
 23220, 20.958
 23280, 23.323
 23340, 16.623
 23400, 16.123
 23460, 16.526
 23520, 14.969
 23580, 16.035
 23640, 15.155
 23700, 17.171
 23760, 17.095
 23820, 15.192
 23880, 17.001
 23940, 16.533
 24000, 16.411
 24060, 17.623
 24120, 17.661
 24180, 18.185
 24240, 16.577
 24300, 15.427
 24360, -9999.000
 24420, 19.490
 24480, 19.785
 24540, 18.142
 24600, 19.751
 24660, 17.123
 24720, 15.931
 24780, 17.707
 24840, 17.786
 24900, 16.649
 24960, 16.396
 25020, 17.601
 25080, 17.784
 25140, 16.086
 25200, 17.586
 25260, 17.920
 25320, 15.588
 25380, 15.634
 25440, 16.473
 25500, 17.842
 25560, 15.894
 25620, 14.887
 25680, 15.319
 25740, 14.809
 25800, 14.299
 25860, 15.155
 25920, 15.725
 25980, 14.335
 26040, 13.253
 26100, 14.120
 26160, 13.425
 26220, -9999.000
 26280, 14.287
 26340, 15.519
 26400, 14.582
 26460, 14.657
 26520, 14.902
 26580, 14.574
 26640, 14.901
 26700, 13.781
 26760, 13.959
 26820, 14.482
 26880, 13.604
 26940, 12.761
 27000, 14.321
 27060, 14.691
 27120, 13.866
 27180, 14.634
 27240, 15.046
 27300, 13.957
 27360, 12.991
 27420, 13.730
 27480, 12.926
 27540, 13.668
 27600, 12.726
 27660, 13.858
 27720, 15.427
 27780, 14.654
 27840, 14.448
 27900, 14.737
 27960, 14.193
 28020, 14.119
 28080, -9999.000
 28140, 13.735
 28200, 14.029
 28260, 13.858
 28320, 13.141
 28380, 13.071
 28440, 12.844
 28500, 11.231
 28560, 11.888
 28620, 12.588
 28680, 12.890
 28740, 11.483
 28800, 12.501
 28860, 13.145
 28920, 12.443
 28980, 13.114
 29040, 13.724
 29100, 13.763
 29160, 14.366
 29220, 12.162
 29280, 13.118
 29340, 11.316
 29400, 11.652
 29460, 12.503
 29520, 11.760
 29580, 13.790
 29640, 13.912
 29700, 12.884
 29760, 13.459
 29820, 14.113
 29880, 14.809
 29940, 16.880
 30000, 15.284
 30060, 15.215
 30120, 16.296
 30180, 15.339
 30240, 13.341
 30300, 13.475
 30360, 12.104
 30420, 12.714
 30480, 12.293
 30540, 15.307
 30600, 13.378
 30660, 13.192
 30720, 13.046
 30780, 12.734
 30840, 12.833
 30900, 13.775
 30960, 13.812
 31020, 14.012
 31080, 15.659
 31140, 16.089
 31200, 16.129
 31260, 14.990
 31320, 15.244
 31380, 14.815
 31440, 15.643
 31500, 16.756
 31560, 16.602
 31620, 14.484
 31680, 16.004
 31740, 17.284
 31800, 14.492
 31860, 14.374
 31920, 17.277
 31980, 15.966
 32040, 17.154
 32100, 16.965
 32160, 16.967
 32220, 15.824
 32280, 22.462
 32340, 27.186
 32400, 29.025
 32460, 30.113
 32520, 30.229
 32580, 24.777
 32640, 23.822
 32700, 25.951
 32760, 32.406
 32820, 30.177
 32880, 30.547
 32940, 33.914
 33000, 38.646
 33060, 36.320
 33120, 50.569
 33180, 44.265
 33240, 49.766
 33300, 43.263
 33360, 41.253
 33420, 39.082
 33480, 43.695
 33540, 44.178
 33600, 40.019
 33660, 44.841
 33720, 40.948
 33780, 49.763
 33840, 36.916
 33900, 41.403
 33960, 42.475
 34020, 52.114
 34080, 48.483
 34140, 50.871
 34200, 45.751
 34260, 39.182
 34320, 41.841
 34380, 42.840
 34440, 45.040
 34500, 46.645
 34560, 51.986
 34620, 42.770
 34680, 42.277
 34740, 40.535
 34800, 36.070
 34860, 31.399
 34920, 26.788
 34980, 25.045
 35040, 25.347
 35100, 22.465
 35160, 23.268
 35220, 21.897
 35280, 21.387
 35340, 20.311
 35400, 20.215
 35460, -9999.000
 35520, 19.289
 35580, 17.837
 35640, 16.939
 35700, 15.395
 35760, 16.060
 35820, 14.057
 35880, 14.622
 35940, 12.249
 36000, 11.683
 36060, 10.897
 36120, 10.819
 36180, 11.665
 36240, 12.616
 36300, 11.755
 36360, 12.465
 36420, 11.163
 36480, 11.874
 36540, 11.930
 36600, 10.309
 36660, 10.964
 36720, 11.453
 36780, 11.146
 36840, 11.157
 36900, 10.949
 36960, 10.731
 37020, 11.558
 37080, 10.781
 37140, 11.013
 37200, 10.981
 37260, 11.118
 37320, 10.170
 37380, 10.959
 37440, 12.618
 37500, 11.452
 37560, 12.218
 37620, 11.512
 37680, 10.842
 37740, 11.408
 37800, 11.660
 37860, 12.334
 37920, 12.262
 37980, 12.289
 38040, 12.844
 38100, 12.236
 38160, 12.540
 38220, 12.281
 38280, 13.481
 38340, 12.814
 38400, 12.436
 38460, 13.017
 38520, 13.454
 38580, 14.165
 38640, 13.839
 38700, 12.979
 38760, 13.326
 38820, 12.286
 38880, 12.191
 38940, 14.089
 39000, 13.958
 39060, 12.093
 39120, 10.951
 39180, 11.378
 39240, 13.302
 39300, 13.312
 39360, 13.503
 39420, 16.034
 39480, 16.522
 39540, 15.104
 39600, 15.314
 39660, 19.472
 39720, 18.294
 39780, 19.432
 39840, 20.141
 39900, 20.314
 39960, 23.514
 40020, 16.294
 40080, 15.782
 40140, 13.608
 40200, 13.723
 40260, 14.737
 40320, 14.687
 40380, 15.998
 40440, 19.155
 40500, 14.955
 40560, 16.338
 40620, 17.081
 40680, 14.551
 40740, 13.218
 40800, 14.307
 40860, 16.591
 40920, 16.818
 40980, 21.313
 41040, 18.692
 41100, 22.954
 41160, 22.048
 41220, 25.900
 41280, 29.350
 41340, 27.913
 41400, 16.607
 41460, 19.905
 41520, 21.078
 41580, 24.190
 41640, 19.204
 41700, 17.646
 41760, 16.792
 41820, 18.964
 41880, 22.694
 41940, 25.808
 42000, 43.321
 42060, 40.149
 42120, 40.671
 42180, 34.297
 42240, 38.037
 42300, 36.842
 42360, 29.676
 42420, 36.270
 42480, 39.891
 42540, 38.226
 42600, 32.606
 42660, 29.900
 42720, 32.468
 42780, 35.042
 42840, -9999.000
 42900, 41.946
 42960, 39.868
 43020, 37.153
 43080, 35.764
 43140, 42.337
 43200, 36.372
 43260, 41.409
 43320, 44.823
 43380, 40.587
 43440, 36.141
 43500, 35.373
 43560, 36.952
 43620, 38.087
 43680, 39.778
 43740, 37.075
 43800, 38.445
 43860, 38.539
 43920, 37.076
 43980, 39.087
 44040, 31.078
 44100, 30.626
 44160, 33.687
 44220, 33.630
 44280, 31.049
 44340, 36.271
 44400, 35.150
 44460, 35.164
 44520, 35.418
 44580, 32.841
 44640, 28.812
 44700, -9999.000
 44760, 32.948
 44820, 30.276
 44880, 29.868
 44940, 32.875
 45000, 33.541
 45060, 30.262
 45120, 27.767
 45180, 28.243
 45240, 34.046
 45300, 30.570
 45360, 30.444
 45420, 30.785
 45480, 28.251
 45540, 30.422
 45600, 27.250
 45660, 28.333
 45720, 28.712
 45780, 28.912
 45840, 25.997
 45900, 26.658
 45960, 26.904
 46020, 29.689
 46080, 23.653
 46140, 29.687
 46200, 25.912
 46260, 28.128
 46320, 29.838
 46380, 28.149
 46440, 30.839
 46500, 25.505
 46560, -9999.000
 46620, 26.354
 46680, 28.705
 46740, 27.917
 46800, -9999.000
 46860, -9999.000
 46920, -9999.000
 46980, -9999.000
 47040, -9999.000
 47100, -9999.000
 47160, -9999.000
 47220, -9999.000
 47280, -9999.000
 47340, -9999.000
 47400, -9999.000
 47460, -9999.000
 47520, -9999.000
 47580, -9999.000
 47640, -9999.000
 47700, -9999.000
 47760, -9999.000
 47820, -9999.000
 47880, -9999.000
 47940, -9999.000
 48000, -9999.000
 48060, -9999.000
 48120, -9999.000
 48180, -9999.000
 48240, -9999.000
 48300, -9999.000
 48360, -9999.000
 48420, -9999.000
 48480, -9999.000
 48540, -9999.000
 48600, -9999.000
 48660, -9999.000
 48720, -9999.000
 48780, -9999.000
 48840, -9999.000
 48900, -9999.000
 48960, -9999.000
 49020, -9999.000
 49080, -9999.000
 49140, -9999.000
 49200, -9999.000
 49260, -9999.000
 49320, -9999.000
 49380, -9999.000
 49440, -9999.000
 49500, -9999.000
 49560, -9999.000
 49620, -9999.000
 49680, -9999.000
 49740, -9999.000
 49800, -9999.000
 49860, -9999.000
 49920, -9999.000
 49980, -9999.000
 50040, -9999.000
 50100, -9999.000
 50160, -9999.000
 50220, -9999.000
 50280, -9999.000
 50340, -9999.000
 50400, -9999.000
 50460, -9999.000
 50520, -9999.000
 50580, -9999.000
 50640, -9999.000
 50700, -9999.000
 50760, -9999.000
 50820, -9999.000
 50880, -9999.000
 50940, -9999.000
 51000, -9999.000
 51060, -9999.000
 51120, -9999.000
 51180, -9999.000
 51240, -9999.000
 51300, -9999.000
 51360, -9999.000
 51420, -9999.000
 51480, -9999.000
 51540, -9999.000
 51600, -9999.000
 51660, -9999.000
 51720, -9999.000
 51780, -9999.000
 51840, -9999.000
 51900, -9999.000
 51960, -9999.000
 52020, -9999.000
 52080, -9999.000
 52140, -9999.000
 52200, -9999.000
 52260, -9999.000
 52320, -9999.000
 52380, -9999.000
 52440, -9999.000
 52500, -9999.000
 52560, -9999.000
 52620, -9999.000
 52680, -9999.000
 52740, -9999.000
 52800, -9999.000
 52860, -9999.000
 52920, -9999.000
 52980, -9999.000
 53040, -9999.000
 53100, -9999.000
 53160, -9999.000
 53220, -9999.000
 53280, -9999.000
 53340, -9999.000
 53400, -9999.000
 53460, -9999.000
 53520, -9999.000
 53580, -9999.000
 53640, -9999.000
 53700, -9999.000
 53760, -9999.000
 53820, -9999.000
 53880, -9999.000
 53940, -9999.000
 54000, -9999.000
 54060, -9999.000
 54120, -9999.000
 54180, -9999.000
 54240, -9999.000
 54300, -9999.000
 54360, -9999.000
 54420, -9999.000
 54480, -9999.000
 54540, -9999.000
 54600, -9999.000
 54660, -9999.000
 54720, -9999.000
 54780, -9999.000
 54840, -9999.000
 54900, -9999.000
 54960, -9999.000
 55020, -9999.000
 55080, -9999.000
 55140, -9999.000
 55200, -9999.000
 55260, -9999.000
 55320, -9999.000
 55380, -9999.000
 55440, -9999.000
 55500, -9999.000
 55560, -9999.000
 55620, -9999.000
 55680, -9999.000
 55740, -9999.000
 55800, -9999.000
 55860, -9999.000
 55920, -9999.000
 55980, -9999.000
 56040, -9999.000
 56100, -9999.000
 56160, -9999.000
 56220, -9999.000
 56280, -9999.000
 56340, -9999.000
 56400, -9999.000
 56460, -9999.000
 56520, -9999.000
 56580, -9999.000
 56640, -9999.000
 56700, -9999.000
 56760, -9999.000
 56820, -9999.000
 56880, -9999.000
 56940, -9999.000
 57000, -9999.000
 57060, -9999.000
 57120, -9999.000
 57180, -9999.000
 57240, -9999.000
 57300, -9999.000
 57360, -9999.000
 57420, -9999.000
 57480, -9999.000
 57540, -9999.000
 57600, -9999.000
 57660, -9999.000
 57720, -9999.000
 57780, -9999.000
 57840, -9999.000
 57900, -9999.000
 57960, -9999.000
 58020, -9999.000
 58080, -9999.000
 58140, -9999.000
 58200, -9999.000
 58260, -9999.000
 58320, -9999.000
 58380, -9999.000
 58440, -9999.000
 58500, -9999.000
 58560, -9999.000
 58620, -9999.000
 58680, -9999.000
 58740, -9999.000
 58800, -9999.000
 58860, -9999.000
 58920, -9999.000
 58980, -9999.000
 59040, -9999.000
 59100, -9999.000
 59160, -9999.000
 59220, -9999.000
 59280, -9999.000
 59340, -9999.000
 59400, -9999.000
 59460, -9999.000
 59520, -9999.000
 59580, -9999.000
 59640, -9999.000
 59700, -9999.000
 59760, -9999.000
 59820, -9999.000
 59880, -9999.000
 59940, -9999.000
 60000, -9999.000
 60060, -9999.000
 60120, -9999.000
 60180, -9999.000
 60240, -9999.000
 60300, -9999.000
 60360, -9999.000
 60420, -9999.000
 60480, -9999.000
 60540, -9999.000
 60600, -9999.000
 60660, -9999.000
 60720, -9999.000
 60780, -9999.000
 60840, -9999.000
 60900, -9999.000
 60960, -9999.000
 61020, -9999.000
 61080, -9999.000
 61140, -9999.000
 61200, -9999.000
 61260, -9999.000
 61320, -9999.000
 61380, -9999.000
 61440, -9999.000
 61500, -9999.000
 61560, -9999.000
 61620, -9999.000
 61680, -9999.000
 61740, -9999.000
 61800, -9999.000
 61860, -9999.000
 61920, -9999.000
 61980, -9999.000
 62040, -9999.000
 62100, -9999.000
 62160, -9999.000
 62220, -9999.000
 62280, -9999.000
 62340, -9999.000
 62400, -9999.000
 62460, -9999.000
 62520, -9999.000
 62580, -9999.000
 62640, -9999.000
 62700, -9999.000
 62760, -9999.000
 62820, -9999.000
 62880, -9999.000
 62940, -9999.000
 63000, -9999.000
 63060, -9999.000
 63120, -9999.000
 63180, -9999.000
 63240, -9999.000
 63300, -9999.000
 63360, -9999.000
 63420, -9999.000
 63480, -9999.000
 63540, -9999.000
 63600, -9999.000
 63660, -9999.000
 63720, -9999.000
 63780, -9999.000
 63840, -9999.000
 63900, -9999.000
 63960, -9999.000
 64020, -9999.000
 64080, -9999.000
 64140, -9999.000
 64200, -9999.000
 64260, -9999.000
 64320, -9999.000
 64380, -9999.000
 64440, -9999.000
 64500, -9999.000
 64560, -9999.000
 64620, -9999.000
 64680, -9999.000
 64740, -9999.000
 64800, -9999.000
 64860, -9999.000
 64920, -9999.000
 64980, -9999.000
 65040, -9999.000
 65100, -9999.000
 65160, -9999.000
 65220, -9999.000
 65280, -9999.000
 65340, -9999.000
 65400, -9999.000
 65460, -9999.000
 65520, -9999.000
 65580, -9999.000
 65640, -9999.000
 65700, -9999.000
 65760, -9999.000
 65820, -9999.000
 65880, -9999.000
 65940, -9999.000
 66000, -9999.000
 66060, -9999.000
 66120, -9999.000
 66180, -9999.000
 66240, -9999.000
 66300, -9999.000
 66360, -9999.000
 66420, -9999.000
 66480, -9999.000
 66540, -9999.000
 66600, -9999.000
 66660, -9999.000
 66720, -9999.000
 66780, -9999.000
 66840, -9999.000
 66900, -9999.000
 66960, -9999.000
 67020, -9999.000
 67080, -9999.000
 67140, -9999.000
 67200, -9999.000
 67260, -9999.000
 67320, -9999.000
 67380, -9999.000
 67440, -9999.000
 67500, -9999.000
 67560, -9999.000
 67620, -9999.000
 67680, -9999.000
 67740, -9999.000
 67800, -9999.000
 67860, -9999.000
 67920, -9999.000
 67980, -9999.000
 68040, -9999.000
 68100, -9999.000
 68160, -9999.000
 68220, -9999.000
 68280, -9999.000
 68340, -9999.000
 68400, -9999.000
 68460, -9999.000
 68520, -9999.000
 68580, -9999.000
 68640, -9999.000
 68700, -9999.000
 68760, -9999.000
 68820, -9999.000
 68880, -9999.000
 68940, -9999.000
 69000, -9999.000
 69060, -9999.000
 69120, -9999.000
 69180, -9999.000
 69240, -9999.000
 69300, -9999.000
 69360, -9999.000
 69420, -9999.000
 69480, -9999.000
 69540, -9999.000
 69600, -9999.000
 69660, -9999.000
 69720, -9999.000
 69780, -9999.000
 69840, -9999.000
 69900, -9999.000
 69960, -9999.000
 70020, -9999.000
 70080, -9999.000
 70140, -9999.000
 70200, -9999.000
 70260, -9999.000
 70320, -9999.000
 70380, -9999.000
 70440, -9999.000
 70500, -9999.000
 70560, -9999.000
 70620, -9999.000
 70680, -9999.000
 70740, -9999.000
 70800, -9999.000
 70860, -9999.000
 70920, -9999.000
 70980, -9999.000
 71040, -9999.000
 71100, -9999.000
 71160, -9999.000
 71220, -9999.000
 71280, -9999.000
 71340, -9999.000
 71400, -9999.000
 71460, -9999.000
 71520, -9999.000
 71580, -9999.000
 71640, -9999.000
 71700, -9999.000
 71760, -9999.000
 71820, -9999.000
 71880, -9999.000
 71940, -9999.000
 72000, -9999.000
 72060, -9999.000
 72120, -9999.000
 72180, -9999.000
 72240, -9999.000
 72300, -9999.000
 72360, -9999.000
 72420, -9999.000
 72480, -9999.000
 72540, -9999.000
 72600, -9999.000
 72660, -9999.000
 72720, -9999.000
 72780, -9999.000
 72840, -9999.000
 72900, -9999.000
 72960, -9999.000
 73020, -9999.000
 73080, -9999.000
 73140, -9999.000
 73200, -9999.000
 73260, -9999.000
 73320, -9999.000
 73380, -9999.000
 73440, -9999.000
 73500, -9999.000
 73560, -9999.000
 73620, -9999.000
 73680, -9999.000
 73740, -9999.000
 73800, -9999.000
 73860, -9999.000
 73920, -9999.000
 73980, -9999.000
 74040, -9999.000
 74100, -9999.000
 74160, -9999.000
 74220, -9999.000
 74280, -9999.000
 74340, -9999.000
 74400, -9999.000
 74460, -9999.000
 74520, -9999.000
 74580, -9999.000
 74640, -9999.000
 74700, -9999.000
 74760, -9999.000
 74820, -9999.000
 74880, -9999.000
 74940, -9999.000
 75000, -9999.000
 75060, -9999.000
 75120, -9999.000
 75180, -9999.000
 75240, -9999.000
 75300, -9999.000
 75360, -9999.000
 75420, -9999.000
 75480, -9999.000
 75540, -9999.000
 75600, -9999.000
 75660, -9999.000
 75720, -9999.000
 75780, -9999.000
 75840, -9999.000
 75900, -9999.000
 75960, -9999.000
 76020, -9999.000
 76080, -9999.000
 76140, -9999.000
 76200, -9999.000
 76260, -9999.000
 76320, -9999.000
 76380, -9999.000
 76440, -9999.000
 76500, -9999.000
 76560, -9999.000
 76620, -9999.000
 76680, -9999.000
 76740, -9999.000
 76800, -9999.000
 76860, -9999.000
 76920, -9999.000
 76980, -9999.000
 77040, -9999.000
 77100, -9999.000
 77160, -9999.000
 77220, -9999.000
 77280, -9999.000
 77340, -9999.000
 77400, -9999.000
 77460, -9999.000
 77520, -9999.000
 77580, -9999.000
 77640, -9999.000
 77700, -9999.000
 77760, -9999.000
 77820, -9999.000
 77880, -9999.000
 77940, -9999.000
 78000, -9999.000
 78060, -9999.000
 78120, -9999.000
 78180, -9999.000
 78240, -9999.000
 78300, -9999.000
 78360, -9999.000
 78420, -9999.000
 78480, -9999.000
 78540, -9999.000
 78600, -9999.000
 78660, -9999.000
 78720, -9999.000
 78780, -9999.000
 78840, -9999.000
 78900, -9999.000
 78960, -9999.000
 79020, -9999.000
 79080, -9999.000
 79140, -9999.000
 79200, -9999.000
 79260, -9999.000
 79320, -9999.000
 79380, -9999.000
 79440, -9999.000
 79500, -9999.000
 79560, -9999.000
 79620, -9999.000
 79680, -9999.000
 79740, -9999.000
 79800, -9999.000
 79860, -9999.000
 79920, -9999.000
 79980, -9999.000
 80040, -9999.000
 80100, -9999.000
 80160, -9999.000
 80220, -9999.000
 80280, -9999.000
 80340, -9999.000
 80400, -9999.000
 80460, -9999.000
 80520, -9999.000
 80580, -9999.000
 80640, -9999.000
 80700, -9999.000
 80760, -9999.000
 80820, -9999.000
 80880, -9999.000
 80940, -9999.000
 81000, -9999.000
 81060, -9999.000
 81120, -9999.000
 81180, -9999.000
 81240, -9999.000
 81300, -9999.000
 81360, -9999.000
 81420, -9999.000
 81480, -9999.000
 81540, -9999.000
 81600, -9999.000
 81660, -9999.000
 81720, -9999.000
 81780, -9999.000
 81840, -9999.000
 81900, -9999.000
 81960, -9999.000
 82020, -9999.000
 82080, -9999.000
 82140, -9999.000
 82200, -9999.000
 82260, -9999.000
 82320, -9999.000
 82380, -9999.000
 82440, -9999.000
 82500, -9999.000
 82560, -9999.000
 82620, -9999.000
 82680, -9999.000
 82740, -9999.000
 82800, -9999.000
 82860, -9999.000
 82920, -9999.000
 82980, -9999.000
 83040, -9999.000
 83100, -9999.000
 83160, -9999.000
 83220, -9999.000
 83280, -9999.000
 83340, -9999.000
 83400, -9999.000
 83460, -9999.000
 83520, -9999.000
 83580, -9999.000
 83640, -9999.000
 83700, -9999.000
 83760, -9999.000
 83820, -9999.000
 83880, -9999.000
 83940, -9999.000
 84000, -9999.000
 84060, -9999.000
 84120, -9999.000
 84180, -9999.000
 84240, -9999.000
 84300, -9999.000
 84360, -9999.000
 84420, -9999.000
 84480, -9999.000
 84540, -9999.000
 84600, -9999.000
 84660, -9999.000
 84720, -9999.000
 84780, -9999.000
 84840, -9999.000
 84900, -9999.000
 84960, -9999.000
 85020, -9999.000
 85080, -9999.000
 85140, -9999.000
 85200, -9999.000
 85260, -9999.000
 85320, -9999.000
 85380, -9999.000
 85440, -9999.000
 85500, -9999.000
 85560, -9999.000
 85620, -9999.000
 85680, -9999.000
 85740, -9999.000
 85800, -9999.000
 85860, -9999.000
 85920, -9999.000
 85980, -9999.000
 86040, -9999.000
 86100, -9999.000
 86160, -9999.000
 86220, -9999.000
 86280, -9999.000
 86340, -9999.000
