33, 1001
Michael A Robinson, Chris Jernigan, Subi Thakali
NOAA ESRL Chemical Sciences Laboratory and CIRES, U. of Colorado
NOAA Iodide CIMS Instrument
USOS
1, 1
2024, 07, 31, 2024, 08, 01
1
starttime_UTC, seconds_past_midnight, seconds_of_day_since_00:00:00_UTC
1
1
-9999
HNO3_NOAACIMS, pptv, Gas_HNO3_InSitu_S_AVMR, 
0
18
PI_CONTACT_INFO: 325 Broadway, R/CSD 7, Boulder, Colorado 80305; michael.a.robinson@noaa.gov; chris.jernigan@noaa.gov;
PLATFORM: NOAA CSL Mobile Lab
LOCATION: SLC, Utah
ASSOCIATED_DATA: 1Hz data also available on request.
INSTRUMENT_INFO: NOAA I- ToF CIMS
DATA_INFO: All data in parts per trillion by volume (pptv). 1 Hz data is available upon request.
UNCERTAINTY: TBD
ULOD_FLAG: -7777
ULOD_VALUE: N/A
LLOD_FLAG: -8888
LLOD_VALUE: N/A
DM_CONTACT_INFO: Nathan Howard; nathan.h.howard@noaa.gov
PROJECT_INFO: USOS, summer 2024. https://csl.noaa.gov/groups/csl7/measurements/2024usos/
STIPULATIONS_ON_USE: Users are strongly encouraged to contact the PI for proper data usage.
OTHER_COMMENTS: 
REVISION: RA
RA: Preliminary Data; For in-field use only
starttime_UTC, HNO3_NOAACIMS
     0, -9999.000
    60, -9999.000
   120, -9999.000
   180, -9999.000
   240, -9999.000
   300, -9999.000
   360, -9999.000
   420, -9999.000
   480, -9999.000
   540, -9999.000
   600, -9999.000
   660, -9999.000
   720, -9999.000
   780, -9999.000
   840, -9999.000
   900, -9999.000
   960, -9999.000
  1020, -9999.000
  1080, -9999.000
  1140, -9999.000
  1200, -9999.000
  1260, -9999.000
  1320, -9999.000
  1380, -9999.000
  1440, -9999.000
  1500, -9999.000
  1560, -9999.000
  1620, -9999.000
  1680, -9999.000
  1740, -9999.000
  1800, -9999.000
  1860, -9999.000
  1920, -9999.000
  1980, -9999.000
  2040, -9999.000
  2100, -9999.000
  2160, -9999.000
  2220, -9999.000
  2280, -9999.000
  2340, -9999.000
  2400, -9999.000
  2460, -9999.000
  2520, -9999.000
  2580, -9999.000
  2640, -9999.000
  2700, -9999.000
  2760, -9999.000
  2820, -9999.000
  2880, -9999.000
  2940, -9999.000
  3000, -9999.000
  3060, -9999.000
  3120, -9999.000
  3180, -9999.000
  3240, -9999.000
  3300, 78.089
  3360, 146.203
  3420, 232.133
  3480, 317.276
  3540, 140.129
  3600, -9999.000
  3660, -9999.000
  3720, -9999.000
  3780, -9999.000
  3840, -9999.000
  3900, 104.799
  3960, 114.900
  4020, 128.062
  4080, 135.349
  4140, 145.263
  4200, 166.223
  4260, 172.530
  4320, 173.489
  4380, 173.191
  4440, -9999.000
  4500, 177.600
  4560, 194.227
  4620, 214.918
  4680, 218.107
  4740, 215.936
  4800, 200.573
  4860, 212.247
  4920, 221.417
  4980, 211.387
  5040, 209.238
  5100, 205.849
  5160, 204.977
  5220, 206.086
  5280, 204.483
  5340, 204.230
  5400, 193.668
  5460, 190.486
  5520, 191.530
  5580, 196.281
  5640, 202.543
  5700, 200.174
  5760, 192.201
  5820, 199.773
  5880, 206.193
  5940, 194.437
  6000, 188.073
  6060, 195.737
  6120, 196.036
  6180, 198.487
  6240, 200.671
  6300, -9999.000
  6360, 194.079
  6420, 189.609
  6480, 193.132
  6540, 196.421
  6600, 200.773
  6660, 197.204
  6720, 195.268
  6780, 192.134
  6840, 179.638
  6900, 179.983
  6960, 179.539
  7020, 198.975
  7080, 190.372
  7140, 179.414
  7200, 176.544
  7260, 171.782
  7320, 182.757
  7380, 177.826
  7440, 174.153
  7500, 169.153
  7560, 177.274
  7620, 166.916
  7680, 166.577
  7740, 170.474
  7800, 166.399
  7860, 166.352
  7920, 166.929
  7980, 169.267
  8040, 173.449
  8100, 166.284
  8160, -9999.000
  8220, 143.444
  8280, 142.825
  8340, 143.585
  8400, 145.272
  8460, 141.498
  8520, 142.752
  8580, 144.844
  8640, 137.110
  8700, 127.190
  8760, 142.590
  8820, 154.826
  8880, 165.650
  8940, 171.187
  9000, 177.877
  9060, 178.206
  9120, 165.104
  9180, 165.303
  9240, 173.962
  9300, 174.485
  9360, 177.389
  9420, 181.420
  9480, 177.981
  9540, 172.233
  9600, 162.002
  9660, 159.405
  9720, 157.167
  9780, 155.646
  9840, 155.936
  9900, 153.813
  9960, 149.209
 10020, 145.272
 10080, 145.746
 10140, 141.960
 10200, 139.943
 10260, 135.555
 10320, 136.011
 10380, 133.449
 10440, 131.447
 10500, 129.656
 10560, 132.236
 10620, 131.543
 10680, 132.273
 10740, 133.413
 10800, 131.753
 10860, 130.095
 10920, 129.048
 10980, 125.805
 11040, 128.147
 11100, 125.352
 11160, 124.443
 11220, 122.615
 11280, 116.841
 11340, 118.619
 11400, 125.176
 11460, 126.112
 11520, 119.173
 11580, 113.760
 11640, 114.713
 11700, 120.183
 11760, 122.399
 11820, 122.602
 11880, 123.290
 11940, 127.816
 12000, 128.409
 12060, 126.855
 12120, 130.437
 12180, 126.536
 12240, 120.662
 12300, 122.820
 12360, 124.525
 12420, 126.661
 12480, 124.577
 12540, 126.994
 12600, 129.833
 12660, 128.744
 12720, 127.114
 12780, 124.848
 12840, 122.215
 12900, 117.602
 12960, 113.374
 13020, 115.601
 13080, 118.048
 13140, 117.509
 13200, 118.610
 13260, 115.494
 13320, 108.120
 13380, 104.559
 13440, 104.329
 13500, 106.991
 13560, 102.255
 13620, 99.017
 13680, 102.719
 13740, 101.815
 13800, 103.890
 13860, 106.296
 13920, 103.910
 13980, 106.088
 14040, 106.014
 14100, 104.477
 14160, 106.825
 14220, 111.633
 14280, 113.216
 14340, 114.803
 14400, 111.965
 14460, 109.444
 14520, 106.724
 14580, 103.158
 14640, 105.172
 14700, 104.541
 14760, 104.861
 14820, 108.478
 14880, 112.029
 14940, 112.809
 15000, 106.045
 15060, 97.383
 15120, 93.759
 15180, 96.973
 15240, 97.063
 15300, 98.011
 15360, 109.251
 15420, 117.574
 15480, 116.607
 15540, -9999.000
 15600, 104.092
 15660, 109.766
 15720, 112.129
 15780, 112.179
 15840, 119.384
 15900, 122.948
 15960, 124.725
 16020, 128.067
 16080, 121.592
 16140, 112.629
 16200, 112.575
 16260, 114.484
 16320, 111.026
 16380, 111.560
 16440, 110.454
 16500, 115.740
 16560, 109.271
 16620, 99.076
 16680, 88.633
 16740, 92.563
 16800, 100.672
 16860, 113.525
 16920, 104.146
 16980, 98.085
 17040, 94.455
 17100, 94.557
 17160, 95.074
 17220, 97.847
 17280, 102.256
 17340, 106.610
 17400, 100.726
 17460, 103.983
 17520, 102.034
 17580, 102.110
 17640, 101.633
 17700, 105.282
 17760, 100.162
 17820, 87.747
 17880, 72.726
 17940, 70.277
 18000, 63.579
 18060, 70.528
 18120, 78.653
 18180, 79.322
 18240, 75.037
 18300, 50.253
 18360, 39.512
 18420, 53.335
 18480, 60.910
 18540, 54.994
 18600, 68.317
 18660, 67.808
 18720, 67.389
 18780, 83.188
 18840, 91.067
 18900, 83.040
 18960, 81.408
 19020, 80.773
 19080, 77.214
 19140, 84.049
 19200, 86.046
 19260, -9999.000
 19320, 103.481
 19380, 95.789
 19440, 89.075
 19500, 62.887
 19560, 61.119
 19620, 64.552
 19680, 64.350
 19740, 60.350
 19800, 55.435
 19860, 42.281
 19920, 42.181
 19980, 45.177
 20040, 53.509
 20100, 61.483
 20160, 60.541
 20220, 61.429
 20280, 63.941
 20340, 64.809
 20400, 61.958
 20460, 59.321
 20520, 57.702
 20580, 67.607
 20640, 88.325
 20700, 99.827
 20760, 99.357
 20820, 99.260
 20880, 100.662
 20940, 101.773
 21000, 107.050
 21060, 111.517
 21120, 120.767
 21180, 122.935
 21240, 120.303
 21300, 118.894
 21360, 124.275
 21420, 127.877
 21480, 128.295
 21540, 125.774
 21600, 123.208
 21660, 119.833
 21720, 122.352
 21780, 125.511
 21840, 125.063
 21900, 125.031
 21960, 120.467
 22020, 122.584
 22080, 127.944
 22140, 130.529
 22200, 132.654
 22260, 127.852
 22320, 127.066
 22380, 125.009
 22440, 128.315
 22500, 127.497
 22560, 124.170
 22620, 118.766
 22680, 113.763
 22740, 110.618
 22800, 114.780
 22860, 115.270
 22920, -9999.000
 22980, 115.686
 23040, 113.234
 23100, 117.133
 23160, 115.530
 23220, 111.256
 23280, 107.489
 23340, 104.422
 23400, 102.550
 23460, 104.072
 23520, 103.315
 23580, 102.953
 23640, 102.049
 23700, 102.883
 23760, 105.211
 23820, 105.173
 23880, 105.327
 23940, 101.926
 24000, 100.971
 24060, 98.562
 24120, 99.530
 24180, 99.167
 24240, 97.108
 24300, 93.600
 24360, 93.376
 24420, 95.629
 24480, 96.574
 24540, 94.508
 24600, 93.246
 24660, 92.814
 24720, 94.371
 24780, -9999.000
 24840, 100.287
 24900, 96.038
 24960, 96.406
 25020, 99.281
 25080, 101.552
 25140, 100.117
 25200, 96.440
 25260, 95.850
 25320, 99.035
 25380, 98.494
 25440, 98.216
 25500, 95.625
 25560, 91.970
 25620, 93.255
 25680, 95.762
 25740, 94.948
 25800, 95.164
 25860, 93.927
 25920, 94.188
 25980, 95.216
 26040, 96.435
 26100, 95.014
 26160, 92.866
 26220, 92.625
 26280, 95.080
 26340, 92.628
 26400, 90.191
 26460, 87.617
 26520, 88.083
 26580, 89.841
 26640, -9999.000
 26700, 94.718
 26760, 91.225
 26820, 89.741
 26880, 91.964
 26940, 92.496
 27000, 91.819
 27060, 88.938
 27120, 86.280
 27180, 83.799
 27240, 83.158
 27300, 83.094
 27360, 73.699
 27420, 69.451
 27480, 63.874
 27540, 62.430
 27600, 68.146
 27660, 74.983
 27720, 82.801
 27780, 93.793
 27840, 90.066
 27900, 78.578
 27960, 78.690
 28020, 79.291
 28080, 82.492
 28140, 87.815
 28200, 86.115
 28260, 89.797
 28320, 94.468
 28380, 97.629
 28440, 96.235
 28500, 99.735
 28560, 90.964
 28620, 95.413
 28680, 96.417
 28740, 97.205
 28800, 99.641
 28860, 94.658
 28920, 93.213
 28980, 92.797
 29040, 95.364
 29100, 97.452
 29160, 97.358
 29220, 91.827
 29280, 91.682
 29340, 92.963
 29400, 91.379
 29460, 87.775
 29520, 85.925
 29580, 80.513
 29640, 80.423
 29700, 79.759
 29760, 77.922
 29820, 68.178
 29880, 69.171
 29940, 70.893
 30000, 80.490
 30060, 80.082
 30120, 76.131
 30180, 77.927
 30240, 80.996
 30300, -9999.000
 30360, 85.660
 30420, 84.515
 30480, 84.534
 30540, 86.189
 30600, 92.185
 30660, 100.183
 30720, 108.724
 30780, 104.147
 30840, 104.885
 30900, 102.812
 30960, 109.647
 31020, 118.309
 31080, 117.717
 31140, 114.602
 31200, 112.794
 31260, 108.997
 31320, 107.493
 31380, 105.312
 31440, 100.816
 31500, 98.227
 31560, 97.679
 31620, 98.359
 31680, 98.491
 31740, 98.320
 31800, 94.914
 31860, 80.787
 31920, 88.132
 31980, 96.047
 32040, 96.234
 32100, 93.782
 32160, -9999.000
 32220, 91.223
 32280, 90.968
 32340, 84.629
 32400, 85.613
 32460, 77.126
 32520, 70.623
 32580, 74.980
 32640, 72.649
 32700, 78.139
 32760, 86.596
 32820, 87.349
 32880, 89.877
 32940, 92.998
 33000, 88.810
 33060, 75.607
 33120, 72.859
 33180, 75.960
 33240, 86.674
 33300, 81.172
 33360, 78.042
 33420, 78.019
 33480, 80.327
 33540, 87.182
 33600, 105.483
 33660, 93.726
 33720, 95.320
 33780, 94.298
 33840, 100.605
 33900, 104.478
 33960, 103.033
 34020, -9999.000
 34080, 94.364
 34140, 94.158
 34200, 103.186
 34260, 111.661
 34320, 110.501
 34380, 111.896
 34440, 110.987
 34500, 111.947
 34560, 118.954
 34620, 130.048
 34680, 124.726
 34740, 115.738
 34800, 105.597
 34860, 96.010
 34920, 105.249
 34980, 108.306
 35040, 103.378
 35100, 95.320
 35160, 98.211
 35220, 102.316
 35280, 102.158
 35340, 98.107
 35400, 97.848
 35460, 95.460
 35520, 103.831
 35580, 106.995
 35640, 106.396
 35700, 105.127
 35760, 101.102
 35820, 103.079
 35880, 105.293
 35940, 104.871
 36000, 100.965
 36060, 99.890
 36120, 97.477
 36180, 100.311
 36240, 102.321
 36300, 103.253
 36360, 102.509
 36420, 101.404
 36480, 104.363
 36540, 113.964
 36600, 112.331
 36660, 112.788
 36720, 112.253
 36780, 98.113
 36840, 109.947
 36900, 120.205
 36960, 118.261
 37020, 111.704
 37080, 104.153
 37140, 97.462
 37200, 98.955
 37260, 97.237
 37320, 94.182
 37380, 91.397
 37440, 92.003
 37500, 90.307
 37560, 89.671
 37620, 86.654
 37680, 83.543
 37740, 93.702
 37800, 94.733
 37860, 92.600
 37920, 92.143
 37980, 87.742
 38040, 86.293
 38100, 84.835
 38160, 85.303
 38220, 83.897
 38280, 81.440
 38340, 81.168
 38400, 80.305
 38460, 78.437
 38520, 75.538
 38580, 75.726
 38640, 77.334
 38700, 78.008
 38760, 78.163
 38820, 75.272
 38880, 73.879
 38940, 74.644
 39000, 74.126
 39060, 70.428
 39120, 68.303
 39180, 72.308
 39240, 72.976
 39300, 74.188
 39360, 71.708
 39420, 73.591
 39480, 74.075
 39540, 75.274
 39600, 79.808
 39660, 77.163
 39720, 77.379
 39780, 78.690
 39840, 78.167
 39900, 76.975
 39960, 75.036
 40020, 74.372
 40080, 75.129
 40140, 73.826
 40200, 72.635
 40260, 74.239
 40320, 74.305
 40380, 74.128
 40440, 72.945
 40500, 74.948
 40560, 75.726
 40620, 74.994
 40680, 74.908
 40740, 75.451
 40800, 73.766
 40860, 77.144
 40920, 75.824
 40980, 74.184
 41040, 71.930
 41100, 68.751
 41160, 68.766
 41220, 63.042
 41280, 61.689
 41340, 59.655
 41400, -9999.000
 41460, 65.831
 41520, 63.696
 41580, 62.837
 41640, 60.064
 41700, 62.050
 41760, 61.179
 41820, 64.133
 41880, 64.492
 41940, 64.694
 42000, 63.120
 42060, 62.895
 42120, 63.202
 42180, 62.779
 42240, 61.612
 42300, 62.134
 42360, 64.156
 42420, 64.750
 42480, 62.318
 42540, 62.944
 42600, 63.471
 42660, 64.843
 42720, 64.853
 42780, 65.720
 42840, 67.469
 42900, 67.863
 42960, 66.280
 43020, 65.771
 43080, 65.916
 43140, 65.093
 43200, 64.194
 43260, -9999.000
 43320, 69.696
 43380, 66.731
 43440, 67.035
 43500, 63.467
 43560, 60.872
 43620, 60.311
 43680, 62.338
 43740, 62.402
 43800, 64.721
 43860, 66.245
 43920, 65.932
 43980, 65.402
 44040, 66.661
 44100, 67.993
 44160, 65.289
 44220, 62.108
 44280, 59.506
 44340, 60.730
 44400, 57.276
 44460, 52.285
 44520, 51.903
 44580, 52.258
 44640, 51.942
 44700, 50.679
 44760, 51.696
 44820, 53.057
 44880, 52.944
 44940, 51.502
 45000, 52.703
 45060, 51.977
 45120, -9999.000
 45180, 53.441
 45240, 51.417
 45300, 47.884
 45360, 45.967
 45420, 41.745
 45480, 38.741
 45540, 34.943
 45600, 29.806
 45660, 23.458
 45720, 18.063
 45780, 13.592
 45840,  7.092
 45900,  0.391
 45960, -3.695
 46020, -4.662
 46080, -7.355
 46140, -11.590
 46200, -16.202
 46260, -20.302
 46320, -25.574
 46380, -29.222
 46440, -32.340
 46500, -35.419
 46560, -39.811
 46620, -43.941
 46680, -47.273
 46740, -50.492
 46800, -47.792
 46860, -27.381
 46920, 46.728
 46980, 139.874
 47040, 118.213
 47100, 99.871
 47160, 96.862
 47220, 92.582
 47280, 92.382
 47340, 88.566
 47400, 88.355
 47460, 90.169
 47520, 93.489
 47580, 93.800
 47640, 94.067
 47700, 95.964
 47760, 96.423
 47820, 101.021
 47880, 100.862
 47940, 101.971
 48000, 103.829
 48060, 96.174
 48120, -9999.000
 48180, 127.967
 48240, 122.370
 48300, 116.332
 48360, 113.489
 48420, 108.400
 48480, 102.168
 48540, 100.177
 48600, 97.468
 48660, 97.300
 48720, 93.077
 48780, 92.034
 48840, 88.712
 48900, 90.588
 48960, 90.000
 49020, 89.872
 49080, 92.741
 49140, 95.465
 49200, 94.271
 49260, 91.802
 49320, 87.181
 49380, 86.716
 49440, 89.956
 49500, 84.421
 49560, 84.638
 49620, 89.675
 49680, 89.852
 49740, 87.995
 49800, 86.335
 49860, 87.713
 49920, 87.720
 49980, 90.570
 50040, 112.550
 50100, 104.143
 50160, 101.011
 50220, 102.925
 50280, 106.387
 50340, 108.345
 50400, 106.030
 50460, 102.885
 50520, 103.543
 50580, 104.836
 50640, 111.705
 50700, 110.990
 50760, 111.410
 50820, 108.154
 50880, 112.438
 50940, 120.144
 51000, 119.311
 51060, 119.499
 51120, 124.400
 51180, 119.888
 51240, 122.413
 51300, 130.114
 51360, 136.649
 51420, 135.881
 51480, 136.941
 51540, 135.149
 51600, 136.322
 51660, 143.315
 51720, 148.818
 51780, 151.385
 51840, -9999.000
 51900, 147.781
 51960, 145.943
 52020, 150.770
 52080, 157.720
 52140, 164.929
 52200, 164.388
 52260, 166.076
 52320, 162.313
 52380, 161.570
 52440, 162.344
 52500, 168.975
 52560, 180.277
 52620, 182.688
 52680, 184.236
 52740, 181.193
 52800, 177.331
 52860, 167.598
 52920, 162.013
 52980, 164.587
 53040, 164.249
 53100, 179.733
 53160, 187.891
 53220, 195.327
 53280, 191.967
 53340, 190.473
 53400, 191.479
 53460, 190.636
 53520, 187.183
 53580, 184.980
 53640, 180.361
 53700, 173.424
 53760, 171.457
 53820, 166.196
 53880, 171.670
 53940, 170.844
 54000, 175.905
 54060, 186.940
 54120, 198.317
 54180, 199.553
 54240, 197.404
 54300, 212.820
 54360, 213.495
 54420, 208.565
 54480, 212.635
 54540, 217.425
 54600, 220.014
 54660, 218.707
 54720, 215.790
 54780, 211.893
 54840, 218.755
 54900, 210.904
 54960, 211.506
 55020, 213.459
 55080, 221.514
 55140, 222.381
 55200, 216.643
 55260, 213.951
 55320, 214.059
 55380, 223.705
 55440, 227.643
 55500, 221.550
 55560, 214.445
 55620, 213.333
 55680, 215.850
 55740, 215.562
 55800, 221.094
 55860, 226.667
 55920, 232.111
 55980, 230.053
 56040, 225.203
 56100, 224.638
 56160, 232.865
 56220, 235.019
 56280, 235.043
 56340, 234.765
 56400, 236.977
 56460, 244.508
 56520, 248.494
 56580, 251.180
 56640, 254.994
 56700, 250.631
 56760, 257.688
 56820, 267.060
 56880, 272.586
 56940, 271.658
 57000, 268.870
 57060, 278.030
 57120, 291.096
 57180, 303.312
 57240, 297.339
 57300, 284.066
 57360, 278.985
 57420, 266.575
 57480, 276.360
 57540, 285.005
 57600, 289.173
 57660, 292.310
 57720, 293.942
 57780, 304.943
 57840, 310.180
 57900, 308.247
 57960, 292.577
 58020, 301.109
 58080, 299.788
 58140, 316.476
 58200, 328.135
 58260, 308.505
 58320, 309.330
 58380, 324.643
 58440, 328.153
 58500, 338.577
 58560, 349.505
 58620, 354.198
 58680, 345.374
 58740, 333.353
 58800, 332.608
 58860, 329.120
 58920, 332.727
 58980, 345.623
 59040, 337.121
 59100, 337.957
 59160, 339.271
 59220, -9999.000
 59280, 302.561
 59340, 317.284
 59400, 332.104
 59460, 335.798
 59520, 358.355
 59580, 364.738
 59640, 366.791
 59700, 365.342
 59760, 349.620
 59820, 333.705
 59880, 366.199
 59940, 387.297
 60000, 387.607
 60060, 386.185
 60120, 385.810
 60180, 383.875
 60240, 396.152
 60300, 402.908
 60360, 414.294
 60420, 408.465
 60480, 398.392
 60540, 415.251
 60600, 407.209
 60660, 418.293
 60720, 442.192
 60780, 449.413
 60840, 431.144
 60900, 437.126
 60960, 452.697
 61020, 488.659
 61080, -9999.000
 61140, 469.003
 61200, 474.448
 61260, 472.395
 61320, 455.705
 61380, 458.225
 61440, 459.428
 61500, 475.121
 61560, 484.646
 61620, 506.279
 61680, 517.907
 61740, 481.147
 61800, 482.537
 61860, 501.575
 61920, 530.920
 61980, 527.530
 62040, 538.165
 62100, 548.314
 62160, 542.844
 62220, 564.155
 62280, 582.595
 62340, 590.507
 62400, 593.425
 62460, 602.903
 62520, 615.544
 62580, 645.322
 62640, 697.414
 62700, 735.561
 62760, 732.915
 62820, 732.743
 62880, 731.404
 62940, -9999.000
 63000, 614.078
 63060, 632.750
 63120, 640.273
 63180, 672.807
 63240, 675.816
 63300, 738.042
 63360, 758.719
 63420, 772.753
 63480, 790.191
 63540, 771.250
 63600, 789.165
 63660, 843.725
 63720, 886.838
 63780, 904.872
 63840, 911.486
 63900, 862.624
 63960, 889.826
 64020, 887.672
 64080, 912.932
 64140, 935.296
 64200, 934.853
 64260, 945.868
 64320, 956.634
 64380, 993.252
 64440, 1047.464
 64500, 1123.152
 64560, 1162.659
 64620, 1139.970
 64680, 1026.193
 64740, 1010.862
 64800, 892.017
 64860, 906.517
 64920, 945.306
 64980, 990.186
 65040, 1029.188
 65100, 1055.877
 65160, 991.705
 65220, 960.842
 65280, 978.897
 65340, 1044.707
 65400, 983.762
 65460, 966.661
 65520, 997.587
 65580, 985.821
 65640, 1067.677
 65700, 1044.007
 65760, 1035.958
 65820, 1034.701
 65880, 1112.235
 65940, 1237.935
 66000, 1263.748
 66060, 1185.499
 66120, 1193.883
 66180, 1207.558
 66240, 1175.326
 66300, 1222.319
 66360, 1245.244
 66420, 1251.615
 66480, 1199.712
 66540, 1204.372
 66600, -9999.000
 66660, 977.083
 66720, 999.726
 66780, 1136.327
 66840, 1206.082
 66900, 1241.519
 66960, 1273.803
 67020, 1319.262
 67080, 1357.131
 67140, 1362.590
 67200, 1365.179
 67260, 1226.147
 67320, 1197.933
 67380, 1174.688
 67440, 1122.664
 67500, 1204.122
 67560, 1242.811
 67620, 1262.759
 67680, 1243.491
 67740, 1259.299
 67800, 1269.338
 67860, 1218.735
 67920, 1224.095
 67980, 1297.411
 68040, 1275.744
 68100, 1343.124
 68160, 1317.596
 68220, 1332.099
 68280, 1359.988
 68340, 1311.883
 68400, 1271.699
 68460, -9999.000
 68520, 1104.517
 68580, 1046.803
 68640, 1070.478
 68700, 1095.631
 68760, 1073.137
 68820, 1065.210
 68880, 1028.536
 68940, 1009.695
 69000, 1040.127
 69060, 972.225
 69120, 974.901
 69180, 979.715
 69240, 1005.427
 69300, 1010.243
 69360, 956.129
 69420, 882.818
 69480, 834.835
 69540, 823.607
 69600, 790.346
 69660, 821.007
 69720, 797.981
 69780, 808.409
 69840, 800.224
 69900, 794.152
 69960, 802.714
 70020, 825.567
 70080, 794.600
 70140, 810.866
 70200, 854.538
 70260, 880.177
 70320, -9999.000
 70380, 700.704
 70440, 723.295
 70500, 780.360
 70560, 817.003
 70620, 815.148
 70680, 762.626
 70740, 747.474
 70800, 800.921
 70860, 761.335
 70920, 748.923
 70980, 808.451
 71040, 825.674
 71100, 856.568
 71160, 896.765
 71220, 854.670
 71280, 809.300
 71340, 773.337
 71400, 768.307
 71460, 784.169
 71520, 824.683
 71580, 819.414
 71640, 802.426
 71700, 763.012
 71760, 749.396
 71820, 732.238
 71880, 756.226
 71940, 748.090
 72000, 763.106
 72060, 730.816
 72120, 738.440
 72180, 683.266
 72240, 714.894
 72300, 775.920
 72360, 776.246
 72420, 783.963
 72480, 788.104
 72540, 791.425
 72600, 773.063
 72660, 799.053
 72720, 785.919
 72780, 773.213
 72840, 725.118
 72900, 741.151
 72960, 768.659
 73020, 784.466
 73080, 738.945
 73140, 728.646
 73200, 680.274
 73260, 734.477
 73320, 762.141
 73380, 751.937
 73440, 739.169
 73500, 737.250
 73560, 730.103
 73620, 715.878
 73680, 718.892
 73740, 731.264
 73800, 762.585
 73860, 719.065
 73920, 682.182
 73980, 704.646
 74040, 618.890
 74100, 596.812
 74160, 615.790
 74220, 621.403
 74280, 650.117
 74340, 668.606
 74400, 661.546
 74460, 617.933
 74520, 557.817
 74580, 579.813
 74640, 595.100
 74700, 616.727
 74760, 612.495
 74820, 643.828
 74880, 644.616
 74940, 662.570
 75000, 697.961
 75060, 673.738
 75120, 663.759
 75180, 638.567
 75240, 670.784
 75300, 671.225
 75360, 659.394
 75420, 660.737
 75480, 659.341
 75540, 675.315
 75600, 663.205
 75660, 683.575
 75720, 673.997
 75780, 669.417
 75840, 645.928
 75900, 598.055
 75960, 632.734
 76020, 689.712
 76080, 715.199
 76140, 713.914
 76200, 741.047
 76260, 719.420
 76320, 693.823
 76380, 711.159
 76440, 752.970
 76500, 842.856
 76560, 866.665
 76620, 870.946
 76680, 833.695
 76740, 777.715
 76800, 782.785
 76860, 789.888
 76920, 810.860
 76980, 836.192
 77040, 852.582
 77100, 848.125
 77160, 816.479
 77220, 851.329
 77280, 864.070
 77340, 817.532
 77400, 772.881
 77460, 771.930
 77520, 786.227
 77580, 808.982
 77640, 835.537
 77700, -9999.000
 77760, 703.399
 77820, 737.453
 77880, 776.571
 77940, 822.367
 78000, 797.393
 78060, 813.175
 78120, 805.827
 78180, 800.387
 78240, 824.712
 78300, 871.919
 78360, 886.164
 78420, 865.982
 78480, 832.066
 78540, 835.285
 78600, 783.053
 78660, 792.581
 78720, 796.752
 78780, 804.287
 78840, 826.311
 78900, 854.701
 78960, 853.339
 79020, 858.687
 79080, 813.118
 79140, 763.816
 79200, 769.618
 79260, 764.076
 79320, 762.483
 79380, 764.694
 79440, 781.499
 79500, 808.644
 79560, -9999.000
 79620, 723.397
 79680, 754.879
 79740, 796.483
 79800, 772.822
 79860, 795.189
 79920, 797.721
 79980, 789.262
 80040, 737.732
 80100, 770.828
 80160, 868.797
 80220, 851.153
 80280, 830.678
 80340, 892.979
 80400, 893.404
 80460, 963.728
 80520, 980.841
 80580, 973.797
 80640, 993.012
 80700, 934.986
 80760, 909.811
 80820, 918.799
 80880, 854.083
 80940, 845.561
 81000, 873.695
 81060, 837.471
 81120, 828.521
 81180, 824.047
 81240, 823.692
 81300, 805.701
 81360, 807.805
 81420, -9999.000
 81480, 757.508
 81540, 812.971
 81600, 824.119
 81660, 820.854
 81720, 774.605
 81780, 788.271
 81840, 806.284
 81900, 812.133
 81960, 824.832
 82020, 856.090
 82080, 818.143
 82140, 830.246
 82200, 843.319
 82260, 838.524
 82320, 841.940
 82380, 837.241
 82440, 821.556
 82500, 780.840
 82560, 735.311
 82620, 766.073
 82680, 771.550
 82740, 752.728
 82800, 775.655
 82860, 753.123
 82920, 741.849
 82980, 780.339
 83040, 775.112
 83100, 800.748
 83160, 796.549
 83220, 810.093
 83280, 736.509
 83340, 695.784
 83400, 767.159
 83460, 760.331
 83520, 700.533
 83580, 680.520
 83640, 724.452
 83700, 786.569
 83760, 824.253
 83820, 840.357
 83880, 800.032
 83940, 783.278
 84000, 756.566
 84060, 757.806
 84120, 790.974
 84180, 778.542
 84240, 751.901
 84300, 727.763
 84360, 709.070
 84420, 693.739
 84480, 729.958
 84540, 735.394
 84600, 739.262
 84660, 748.604
 84720, 746.823
 84780, 704.817
 84840, 685.276
 84900, 702.025
 84960, 700.916
 85020, 696.219
 85080, -9999.000
 85140, 559.816
 85200, 578.353
 85260, 616.403
 85320, 639.806
 85380, 646.401
 85440, 669.991
 85500, 660.617
 85560, 651.926
 85620, 645.509
 85680, 631.775
 85740, 648.212
 85800, 638.754
 85860, 681.938
 85920, 701.120
 85980, 719.329
 86040, 680.727
 86100, 636.932
 86160, 636.688
 86220, 628.933
 86280, 615.428
 86340, 595.483
