33, 1001
Michael A Robinson, Chris Jernigan, Subi Thakali
NOAA ESRL Chemical Sciences Laboratory and CIRES, U. of Colorado
NOAA Iodide CIMS Instrument
USOS
1, 1
2024, 07, 27, 2024, 07, 28
1
starttime_UTC, seconds_past_midnight, seconds_of_day_since_00:00:00_UTC
1
1
-9999
HNO2_NOAACIMS, pptv, Gas_HNO2_InSitu_S_AVMR, 
0
18
PI_CONTACT_INFO: 325 Broadway, R/CSD 7, Boulder, Colorado 80305; michael.a.robinson@noaa.gov; chris.jernigan@noaa.gov;
PLATFORM: NOAA CSL Mobile Lab
LOCATION: SLC, Utah
ASSOCIATED_DATA: 1Hz data also available on request.
INSTRUMENT_INFO: NOAA I- ToF CIMS
DATA_INFO: All data in parts per trillion by volume (pptv). 1 Hz data is available upon request.
UNCERTAINTY: TBD
ULOD_FLAG: -7777
ULOD_VALUE: N/A
LLOD_FLAG: -8888
LLOD_VALUE: N/A
DM_CONTACT_INFO: Nathan Howard; nathan.h.howard@noaa.gov
PROJECT_INFO: USOS, summer 2024. https://csl.noaa.gov/groups/csl7/measurements/2024usos/
STIPULATIONS_ON_USE: Users are strongly encouraged to contact the PI for proper data usage.
OTHER_COMMENTS: 
REVISION: RA
RA: Preliminary Data; For in-field use only
starttime_UTC, HNO2_NOAACIMS
     0, 13.323
    60, 12.293
   120,  6.709
   180,  6.000
   240,  3.221
   300,  4.451
   360,  0.870
   420,  3.998
   480,  4.838
   540,  5.889
   600,  5.729
   660,  8.767
   720,  5.458
   780,  7.977
   840,  5.991
   900, 10.429
   960,  7.130
  1020,  4.733
  1080, 14.855
  1140,  9.525
  1200, 13.912
  1260, 10.137
  1320, 12.827
  1380, 10.160
  1440,  6.138
  1500,  3.289
  1560,  4.979
  1620,  4.558
  1680,  4.153
  1740,  1.222
  1800,  7.139
  1860,  3.598
  1920,  8.909
  1980,  0.661
  2040, -1.259
  2100,  1.207
  2160,  2.050
  2220,  0.903
  2280, -3.722
  2340,  1.783
  2400,  4.418
  2460,  8.387
  2520,  4.955
  2580,  0.224
  2640,  3.331
  2700,  7.123
  2760, 12.015
  2820, 10.687
  2880, 12.618
  2940, 13.552
  3000, 13.810
  3060, 10.399
  3120,  6.946
  3180,  5.638
  3240,  8.096
  3300,  3.242
  3360,  5.056
  3420,  2.234
  3480,  1.335
  3540,  2.720
  3600,  1.415
  3660,  2.624
  3720,  0.219
  3780,  5.486
  3840,  7.476
  3900,  7.940
  3960,  9.973
  4020,  5.886
  4080,  8.452
  4140, 14.825
  4200,  8.296
  4260,  0.604
  4320,  7.118
  4380,  0.794
  4440,  5.723
  4500,  8.519
  4560,  8.747
  4620, 11.278
  4680, 11.325
  4740, 10.771
  4800, 11.020
  4860,  3.741
  4920, 20.389
  4980, 16.661
  5040, 16.404
  5100, 18.724
  5160, 17.587
  5220,  9.931
  5280,  8.623
  5340, 14.065
  5400, 17.726
  5460, 10.971
  5520, 10.141
  5580, 12.753
  5640, 26.173
  5700, 25.902
  5760, 18.084
  5820, 16.780
  5880, 14.860
  5940, 18.754
  6000, 26.913
  6060, 22.440
  6120, 18.589
  6180, 16.120
  6240, -9999.000
  6300,  2.366
  6360,  9.083
  6420, 12.316
  6480, 25.854
  6540, 28.416
  6600, 24.491
  6660, 34.298
  6720, 14.248
  6780, 12.279
  6840, 12.288
  6900, 14.889
  6960, 19.626
  7020, 25.805
  7080, 25.797
  7140, 29.654
  7200, 29.516
  7260, 25.535
  7320, 38.622
  7380, 36.341
  7440, 34.806
  7500, 31.165
  7560, 43.020
  7620, 42.031
  7680, 39.242
  7740, 31.145
  7800, 24.544
  7860, 15.324
  7920, 26.964
  7980, 31.879
  8040, 25.785
  8100, -9999.000
  8160, 23.173
  8220, 24.151
  8280, 16.429
  8340, 29.728
  8400, 23.861
  8460, 32.812
  8520, 25.997
  8580, 17.504
  8640, 17.299
  8700, 13.255
  8760, 14.622
  8820, 16.969
  8880, 16.313
  8940, 20.388
  9000, 25.234
  9060, 22.305
  9120, 15.972
  9180, 34.037
  9240, 44.075
  9300, 59.980
  9360, 55.070
  9420, 54.580
  9480, 56.768
  9540, 56.662
  9600, 57.493
  9660, 61.842
  9720, 64.591
  9780, 59.625
  9840, 58.089
  9900, 65.949
  9960, -9999.000
 10020, 48.552
 10080, 52.828
 10140, 48.920
 10200, 56.335
 10260, 59.402
 10320, 68.069
 10380, 60.668
 10440, 50.578
 10500, 60.629
 10560, 51.794
 10620, 48.526
 10680, 51.251
 10740, 47.589
 10800, 42.914
 10860, 49.283
 10920, 44.814
 10980, 48.028
 11040, 46.150
 11100, 42.053
 11160, 41.135
 11220, 46.633
 11280, 51.991
 11340, 42.652
 11400, 38.195
 11460, 41.676
 11520, 45.950
 11580, 47.293
 11640, 56.870
 11700, 49.368
 11760, 47.813
 11820, 51.943
 11880, 52.484
 11940, 49.785
 12000, 54.490
 12060, 56.192
 12120, 54.820
 12180, 22.631
 12240, 48.268
 12300, 46.302
 12360, 44.793
 12420, 53.569
 12480, 42.623
 12540, 43.873
 12600, 41.643
 12660, 48.812
 12720, 41.671
 12780, 48.390
 12840, 51.011
 12900, 32.856
 12960, 49.035
 13020, 42.444
 13080, 39.300
 13140, 50.171
 13200, 46.750
 13260, 49.153
 13320, 49.327
 13380, 49.562
 13440, 51.989
 13500, 30.879
 13560, 49.944
 13620, -9999.000
 13680, 42.855
 13740, 41.247
 13800, 38.206
 13860, 45.438
 13920, 31.532
 13980, 48.300
 14040, 49.306
 14100, 29.249
 14160, 41.341
 14220, 40.532
 14280, 31.159
 14340, 37.210
 14400, 27.913
 14460, 40.188
 14520, 33.687
 14580, 43.369
 14640, 46.397
 14700, 27.009
 14760, 40.429
 14820, 33.506
 14880, 35.634
 14940, 38.026
 15000, 35.779
 15060, 36.985
 15120, 38.837
 15180, 37.998
 15240, 34.297
 15300, 32.397
 15360, 45.862
 15420, 41.486
 15480, -9999.000
 15540, 42.073
 15600, 33.308
 15660, 43.597
 15720, 34.842
 15780, 25.247
 15840, 36.477
 15900, 33.785
 15960, 30.151
 16020, 31.847
 16080, 28.702
 16140, 38.295
 16200, 32.738
 16260, 21.444
 16320, 29.833
 16380, 25.666
 16440, 27.078
 16500, 33.051
 16560, 24.469
 16620, 30.774
 16680, 28.818
 16740, 30.498
 16800, 33.378
 16860, 16.092
 16920, 27.725
 16980, 27.408
 17040, 25.276
 17100, 31.767
 17160, 26.827
 17220, 38.674
 17280, 40.665
 17340, -9999.000
 17400, 35.470
 17460, 29.427
 17520, 23.741
 17580, 36.279
 17640, 27.131
 17700, 38.133
 17760, 36.502
 17820, 30.171
 17880, 37.812
 17940, 26.055
 18000, 32.661
 18060, 35.946
 18120, 29.764
 18180, 37.637
 18240, 31.537
 18300, 42.892
 18360, 42.407
 18420, 22.107
 18480, 38.863
 18540, 31.156
 18600, 24.939
 18660, 30.095
 18720, 38.983
 18780, 37.305
 18840, 41.619
 18900, 32.524
 18960, 28.252
 19020, 33.036
 19080, 41.223
 19140, 40.930
 19200, 38.327
 19260, 34.683
 19320, 36.944
 19380, 43.501
 19440, 36.690
 19500, 19.925
 19560, 27.919
 19620, 30.134
 19680, 31.555
 19740, 28.014
 19800, 24.081
 19860, 36.874
 19920, 22.701
 19980, 16.220
 20040, 24.343
 20100, 27.017
 20160, 34.271
 20220, 31.476
 20280, 34.503
 20340, 31.958
 20400, 26.412
 20460, 21.354
 20520, 16.708
 20580, 26.610
 20640, 25.596
 20700, 26.148
 20760, 28.665
 20820, 33.620
 20880, 30.262
 20940, 31.753
 21000, 34.874
 21060,  3.997
 21120, 27.514
 21180, 26.591
 21240, 32.393
 21300, 27.800
 21360, 40.634
 21420, 40.768
 21480, 32.269
 21540, 19.288
 21600, 32.219
 21660, 31.930
 21720, 27.011
 21780, 27.900
 21840, 32.346
 21900, 35.798
 21960, 28.290
 22020, 19.647
 22080, 29.656
 22140, 32.832
 22200, 37.519
 22260, 25.376
 22320, 50.510
 22380, 30.781
 22440, 37.925
 22500, 30.752
 22560, 32.206
 22620, 32.129
 22680, 28.812
 22740, 34.271
 22800, 41.006
 22860, 15.721
 22920, 28.213
 22980, 28.114
 23040, 34.653
 23100, 29.637
 23160, 65.819
 23220, 88.171
 23280, 84.108
 23340, 86.288
 23400, 90.462
 23460, 99.185
 23520, 102.034
 23580, 86.235
 23640, 90.690
 23700, 80.910
 23760, 84.116
 23820, 75.923
 23880, 85.388
 23940, 90.543
 24000, 92.701
 24060, 101.605
 24120, 96.977
 24180, 84.545
 24240, 92.815
 24300, 102.172
 24360, 107.149
 24420, 99.355
 24480, 110.964
 24540, 122.003
 24600, 115.628
 24660, 79.936
 24720, -9999.000
 24780, 114.962
 24840, 113.385
 24900, 121.277
 24960, 115.798
 25020, 129.837
 25080, 122.858
 25140, 98.018
 25200, 109.915
 25260, 110.067
 25320, 112.197
 25380, 103.934
 25440, 107.757
 25500, 114.606
 25560, 113.916
 25620, 102.531
 25680, 99.726
 25740, 96.567
 25800, 95.066
 25860, 108.591
 25920, 105.304
 25980, 110.504
 26040, 105.100
 26100, 97.274
 26160, 112.266
 26220, 107.843
 26280, 117.796
 26340, 125.281
 26400, 111.110
 26460, 132.565
 26520, 115.147
 26580, 105.882
 26640, 96.029
 26700, 101.825
 26760, 101.816
 26820, 102.194
 26880, 99.729
 26940, 94.621
 27000, 104.774
 27060, 71.760
 27120, 81.811
 27180, 86.358
 27240, 72.576
 27300, 76.272
 27360, 69.853
 27420, 73.724
 27480, 69.044
 27540, 55.145
 27600, 52.726
 27660, 66.693
 27720, 49.274
 27780, 64.414
 27840, 54.277
 27900, 53.651
 27960, 54.783
 28020, 41.099
 28080, 48.307
 28140, 43.476
 28200, 44.255
 28260, 49.812
 28320, 53.058
 28380, 46.275
 28440, 54.822
 28500, 41.988
 28560, 31.313
 28620, 45.336
 28680, 28.358
 28740, 38.068
 28800, 38.204
 28860, 30.377
 28920, 28.550
 28980, 37.421
 29040, 31.636
 29100, 25.627
 29160, 29.939
 29220, 35.096
 29280, 31.679
 29340, 36.810
 29400, 36.894
 29460, 25.312
 29520, 40.872
 29580, 32.522
 29640, 27.924
 29700, 33.814
 29760, 29.302
 29820, 34.965
 29880, 29.376
 29940, 19.269
 30000, 36.707
 30060, 21.881
 30120, 29.701
 30180, 37.325
 30240, 30.964
 30300, 39.104
 30360, 34.227
 30420, 18.888
 30480, 32.047
 30540, 38.480
 30600, 34.959
 30660, 33.934
 30720, 26.764
 30780, 39.139
 30840, 33.692
 30900, 24.392
 30960, 36.604
 31020, 38.086
 31080, 42.612
 31140, 44.736
 31200, 53.163
 31260, 57.770
 31320, 49.462
 31380, 51.760
 31440, 43.845
 31500, 30.631
 31560, 58.379
 31620, 66.807
 31680, 68.556
 31740, 78.154
 31800, 72.121
 31860, 73.685
 31920, 76.390
 31980, 84.633
 32040, 90.398
 32100, -9999.000
 32160, 94.937
 32220, 96.615
 32280, 100.703
 32340, 112.856
 32400, 119.980
 32460, 119.579
 32520, 118.789
 32580, 136.979
 32640, 135.334
 32700, 107.539
 32760, 120.608
 32820, 108.743
 32880, 111.607
 32940, 114.649
 33000, 100.740
 33060, 106.148
 33120, 102.733
 33180, 106.145
 33240, 111.964
 33300, 69.564
 33360, 83.100
 33420, 86.618
 33480, 85.320
 33540, 98.207
 33600, 108.387
 33660, 117.193
 33720, 100.962
 33780, 107.393
 33840, 104.560
 33900, 76.731
 33960, -9999.000
 34020, 95.691
 34080, 114.254
 34140, 139.916
 34200, 119.084
 34260, 115.652
 34320, 153.084
 34380, 139.539
 34440, 132.571
 34500, 140.559
 34560, 142.964
 34620, 148.161
 34680, 154.745
 34740, 117.714
 34800, 120.648
 34860, 137.590
 34920, 140.942
 34980, 127.537
 35040, 141.483
 35100, 106.574
 35160, 132.833
 35220, 103.159
 35280, 117.091
 35340, 127.600
 35400, 135.372
 35460, 97.239
 35520, 127.099
 35580, 104.185
 35640, 90.851
 35700, 92.838
 35760, 95.026
 35820, -9999.000
 35880, 75.674
 35940, 73.697
 36000, 82.147
 36060, 96.569
 36120, 104.427
 36180, 105.626
 36240, 106.287
 36300, 88.687
 36360, 105.228
 36420, 117.812
 36480, 101.054
 36540, 120.807
 36600, 121.686
 36660, 95.247
 36720, 109.928
 36780, 111.701
 36840, 110.313
 36900, 123.852
 36960, 115.930
 37020, 118.149
 37080, 124.018
 37140, 92.076
 37200, 115.316
 37260, 127.863
 37320, 100.139
 37380, 141.333
 37440, 145.605
 37500, 114.957
 37560, 129.602
 37620, 135.180
 37680, 137.578
 37740, 152.726
 37800, 143.594
 37860, 148.241
 37920, 148.085
 37980, 128.833
 38040, 126.293
 38100, 118.593
 38160, 104.839
 38220, 103.735
 38280, 95.980
 38340, 85.155
 38400, 84.816
 38460, 85.342
 38520, 68.302
 38580, 90.038
 38640, 91.410
 38700, 70.608
 38760, 64.668
 38820, 77.578
 38880, 75.679
 38940, 82.213
 39000, 92.751
 39060, 70.270
 39120, 78.091
 39180, 76.399
 39240, 76.943
 39300, 83.144
 39360, 93.451
 39420, 83.858
 39480, -9999.000
 39540, 95.860
 39600, 73.688
 39660, 82.732
 39720, 96.178
 39780, 74.304
 39840, 59.574
 39900, 74.613
 39960, 73.893
 40020, 82.186
 40080, 81.154
 40140, 64.489
 40200, 68.298
 40260, 85.322
 40320, 76.957
 40380, 92.843
 40440, 99.864
 40500, 73.254
 40560, 72.699
 40620, 76.388
 40680, 77.285
 40740, 94.549
 40800, 85.535
 40860, 57.969
 40920, 76.624
 40980, 88.332
 41040, 81.261
 41100, 90.980
 41160, 93.566
 41220, 76.587
 41280, 76.729
 41340, -9999.000
 41400, 88.076
 41460, 88.233
 41520, 103.581
 41580, 82.491
 41640, 90.144
 41700, 98.681
 41760, 99.060
 41820, 99.897
 41880, 96.916
 41940, 86.055
 42000, 94.853
 42060, 107.777
 42120, 116.894
 42180, 115.239
 42240, 137.753
 42300, 198.478
 42360, 184.641
 42420, 214.132
 42480, 233.607
 42540, 226.781
 42600, 216.858
 42660, 228.185
 42720, 234.628
 42780, 253.210
 42840, 270.767
 42900, 252.803
 42960, 246.106
 43020, 269.491
 43080, 257.309
 43140, 272.515
 43200, -9999.000
 43260, 248.934
 43320, 247.102
 43380, 262.697
 43440, 246.073
 43500, 259.679
 43560, 258.335
 43620, 227.993
 43680, 244.793
 43740, 256.480
 43800, 264.357
 43860, 247.037
 43920, 251.207
 43980, 233.370
 44040, 236.101
 44100, 248.132
 44160, 236.483
 44220, 193.167
 44280, 218.535
 44340, 217.310
 44400, 208.895
 44460, 206.737
 44520, 213.753
 44580, 182.951
 44640, 191.730
 44700, 182.900
 44760, 187.400
 44820, 175.411
 44880, 76.828
 44940, 76.524
 45000, 68.729
 45060, 79.090
 45120, 60.530
 45180, 53.296
 45240, 54.104
 45300, 64.874
 45360, 54.606
 45420, 94.179
 45480, 72.783
 45540, 62.470
 45600, 67.901
 45660, 81.070
 45720, 89.844
 45780, 83.933
 45840, 87.593
 45900, 103.635
 45960, 100.594
 46020, 120.762
 46080, 132.154
 46140, 111.173
 46200, 110.277
 46260, 119.008
 46320, 121.216
 46380, 121.178
 46440, 118.658
 46500, 99.808
 46560, 109.367
 46620, 124.640
 46680, 99.365
 46740, 102.925
 46800, 106.054
 46860, 102.855
 46920, 91.668
 46980, 123.424
 47040, 94.094
 47100, 127.102
 47160, 98.280
 47220, 69.369
 47280, 78.109
 47340, 81.386
 47400, 61.752
 47460, 41.511
 47520, 43.461
 47580, 59.235
 47640, 55.756
 47700, 52.617
 47760, 67.160
 47820, 46.105
 47880, 52.588
 47940, 48.307
 48000, 51.517
 48060, 53.744
 48120, 48.259
 48180, 40.903
 48240, 47.334
 48300, 46.948
 48360, 45.725
 48420, 50.004
 48480, 49.801
 48540, 47.937
 48600, 44.596
 48660, 43.736
 48720, 46.699
 48780, 59.774
 48840, 57.877
 48900, 52.356
 48960, 47.961
 49020, 67.186
 49080, 55.651
 49140, 64.823
 49200, 60.974
 49260, 57.433
 49320, 58.638
 49380, 46.469
 49440, 38.687
 49500, 43.752
 49560, 49.893
 49620, 57.672
 49680, 54.645
 49740, 40.503
 49800, 28.378
 49860, 43.972
 49920, 43.246
 49980, 53.762
 50040, 82.450
 50100, 83.011
 50160, 77.331
 50220, 95.427
 50280, 87.467
 50340, 112.220
 50400, 123.960
 50460, 133.191
 50520, 143.389
 50580, -9999.000
 50640, 136.264
 50700, 150.719
 50760, 147.727
 50820, 170.150
 50880, 166.196
 50940, 181.715
 51000, 160.553
 51060, 125.060
 51120, 164.146
 51180, 150.153
 51240, 143.724
 51300, 155.497
 51360, 140.884
 51420, 168.646
 51480, 178.491
 51540, 142.052
 51600, 174.801
 51660, 157.167
 51720, 161.797
 51780, 169.270
 51840, 158.428
 51900, 144.397
 51960, 143.409
 52020, 122.473
 52080, 130.721
 52140, 139.656
 52200, 130.001
 52260, 136.177
 52320, 138.982
 52380, 149.515
 52440, 99.114
 52500, 106.475
 52560, 119.012
 52620, 128.395
 52680, 107.192
 52740, 127.229
 52800, 105.685
 52860, 111.072
 52920, 113.817
 52980, 79.971
 53040, 101.537
 53100, 91.465
 53160, 93.758
 53220, 110.319
 53280, 108.138
 53340, 119.270
 53400, 94.424
 53460, 108.059
 53520, 114.622
 53580, 79.864
 53640, 83.009
 53700, 117.326
 53760, 92.604
 53820, 121.591
 53880, 104.980
 53940, 105.981
 54000, 111.564
 54060, 103.592
 54120, 98.543
 54180, 77.255
 54240, 81.702
 54300, -9999.000
 54360, 54.125
 54420, 84.573
 54480, 72.642
 54540, 63.732
 54600, 54.402
 54660, 75.883
 54720, 70.449
 54780, 62.070
 54840, 60.465
 54900, 78.080
 54960, 67.418
 55020, 69.653
 55080, 54.452
 55140, 56.826
 55200, 60.331
 55260, 61.743
 55320, 55.146
 55380, 60.901
 55440, 65.248
 55500, 62.205
 55560, 54.499
 55620, 51.883
 55680, 50.352
 55740, 69.085
 55800, 71.387
 55860, 59.460
 55920, 58.824
 55980, 63.524
 56040, 49.448
 56100, 65.223
 56160, 75.235
 56220, 67.960
 56280, 56.849
 56340, 57.735
 56400, 57.337
 56460, 46.827
 56520, 54.351
 56580, 53.044
 56640, 62.543
 56700, 58.553
 56760, 56.411
 56820, 60.841
 56880, 62.194
 56940, 55.298
 57000, 50.781
 57060, 55.177
 57120, 53.715
 57180, 57.715
 57240, 57.427
 57300, 57.357
 57360, 61.088
 57420, 48.294
 57480, 55.920
 57540, 74.707
 57600, 86.006
 57660, 77.888
 57720, 73.991
 57780, 74.939
 57840, 62.661
 57900, 32.919
 57960, -9999.000
 58020, 35.554
 58080, 38.429
 58140, 28.214
 58200, 28.635
 58260, 36.615
 58320, 35.644
 58380, 25.964
 58440, 27.022
 58500, 29.977
 58560, 27.749
 58620, 36.830
 58680, 31.723
 58740, 29.368
 58800, 28.427
 58860, 31.315
 58920, 27.736
 58980, 31.514
 59040, 35.685
 59100, 25.366
 59160, 36.089
 59220, 30.575
 59280, 44.037
 59340, 32.777
 59400, 39.276
 59460, 30.551
 59520, 28.429
 59580, 31.228
 59640, 34.471
 59700, 33.060
 59760, 29.912
 59820, -9999.000
 59880, 28.240
 59940, 31.291
 60000, 35.512
 60060, 30.213
 60120, 37.721
 60180, 25.017
 60240, 33.392
 60300, 28.767
 60360, 30.240
 60420, 30.614
 60480, 32.229
 60540, 36.161
 60600, 28.032
 60660, 24.751
 60720, 25.819
 60780, 21.632
 60840, 21.509
 60900, 29.130
 60960, 21.198
 61020, 23.942
 61080, 22.246
 61140, 26.569
 61200, 22.380
 61260, 26.533
 61320, 17.468
 61380, 26.670
 61440, 29.472
 61500, 27.234
 61560, 29.665
 61620, 32.624
 61680, -9999.000
 61740, 37.734
 61800, 33.969
 61860, 29.837
 61920, 30.260
 61980, 32.397
 62040, 34.785
 62100, 31.708
 62160, 35.988
 62220, 35.486
 62280, 50.778
 62340, 36.222
 62400, 30.051
 62460, 36.921
 62520, 33.961
 62580, 39.851
 62640, 27.653
 62700, 30.846
 62760, 25.955
 62820, 28.042
 62880, 21.899
 62940, 28.655
 63000, 20.892
 63060, 16.630
 63120, 19.733
 63180, 21.359
 63240, 16.159
 63300, 21.301
 63360, 18.160
 63420, 19.185
 63480, 28.745
 63540, 43.043
 63600, 39.280
 63660, 29.414
 63720, 42.370
 63780, 42.876
 63840, 35.505
 63900, 48.623
 63960, 55.511
 64020, 41.548
 64080, 56.820
 64140, 35.880
 64200, 66.017
 64260, 43.178
 64320, 47.038
 64380, 76.505
 64440, 58.739
 64500, 82.829
 64560, 99.123
 64620, 80.719
 64680, 108.370
 64740, 98.560
 64800, 111.294
 64860, 110.127
 64920, 96.451
 64980, 118.203
 65040, 123.864
 65100, 113.994
 65160, 159.820
 65220, 147.685
 65280, 118.612
 65340, -9999.000
 65400, 155.757
 65460, 160.437
 65520, 178.058
 65580, 148.364
 65640, 151.903
 65700, 187.312
 65760, 176.657
 65820, 164.515
 65880, 158.755
 65940, 200.908
 66000, 212.129
 66060, 187.532
 66120, 208.027
 66180, 156.817
 66240, 142.864
 66300, 173.621
 66360, 157.584
 66420, 179.298
 66480, 193.037
 66540, 226.090
 66600, 263.501
 66660, 180.761
 66720, 227.772
 66780, 161.970
 66840, 185.398
 66900, 175.968
 66960, 164.982
 67020, 172.981
 67080, 154.590
 67140, 148.813
 67200, 238.733
 67260, 167.253
 67320, 166.012
 67380, 145.990
 67440, 116.130
 67500, 123.144
 67560, 119.961
 67620, 117.639
 67680, 113.412
 67740, 105.470
 67800, 120.378
 67860, 117.142
 67920, 121.914
 67980, 104.549
 68040, 105.315
 68100, 98.196
 68160, 94.810
 68220, 108.900
 68280, 90.590
 68340, 128.767
 68400, 119.363
 68460, 99.525
 68520, 103.182
 68580, 117.381
 68640, 111.528
 68700, 73.585
 68760, 95.895
 68820, 96.222
 68880, 98.469
 68940, 94.820
 69000, 83.867
 69060, -9999.000
 69120, 97.682
 69180, 110.731
 69240, 90.738
 69300, 86.775
 69360, 84.930
 69420, 89.032
 69480, 70.687
 69540, 84.001
 69600, 109.246
 69660, 71.813
 69720, 69.499
 69780, 76.192
 69840, 63.259
 69900, 84.604
 69960, 75.422
 70020, 72.566
 70080, 66.080
 70140, 62.898
 70200, 59.527
 70260, 59.701
 70320, 72.152
 70380, 68.387
 70440, 69.592
 70500, 82.982
 70560, 56.792
 70620, 54.048
 70680, 76.733
 70740, 64.738
 70800, 51.208
 70860, 60.874
 70920, 97.026
 70980, 70.017
 71040, 49.737
 71100, 60.253
 71160, 53.321
 71220, 45.483
 71280, 67.370
 71340, 52.305
 71400, 48.895
 71460, 59.972
 71520, 62.670
 71580, 46.928
 71640, 43.803
 71700, 58.752
 71760, 61.990
 71820, 53.496
 71880, 55.072
 71940, 66.196
 72000, 67.377
 72060, 92.005
 72120, 78.640
 72180, 62.404
 72240, 50.378
 72300, 50.318
 72360, 52.599
 72420, 59.995
 72480, 36.586
 72540, 50.939
 72600, 38.918
 72660, 45.363
 72720, 57.951
 72780, 39.650
 72840, 49.064
 72900, 44.676
 72960, 52.176
 73020, 49.475
 73080, 56.200
 73140, 50.532
 73200, 54.239
 73260, 51.150
 73320, 41.805
 73380, 32.975
 73440, 27.417
 73500, 28.476
 73560, 30.166
 73620, 36.854
 73680, 33.083
 73740, 29.883
 73800, 20.887
 73860, 17.296
 73920, 26.825
 73980, 36.776
 74040, 52.254
 74100, 50.726
 74160, 35.002
 74220, 30.590
 74280, 32.944
 74340, 24.315
 74400, 31.921
 74460, 20.808
 74520, 28.279
 74580, 35.254
 74640, 24.109
 74700, 20.522
 74760, 32.615
 74820, 29.975
 74880, 22.243
 74940, 21.561
 75000, 29.726
 75060, 23.922
 75120, 22.287
 75180, 19.182
 75240, 22.523
 75300, 25.421
 75360, 18.309
 75420, 17.294
 75480, 39.435
 75540, 31.042
 75600, 21.836
 75660, 14.913
 75720, 17.119
 75780, 20.699
 75840, 18.197
 75900, 11.073
 75960,  9.163
 76020, 22.332
 76080, 21.668
 76140, 11.240
 76200, 16.030
 76260, 22.234
 76320, 33.922
 76380, 32.540
 76440, -9999.000
 76500, 29.086
 76560, 24.614
 76620, 21.657
 76680, 39.520
 76740, 31.010
 76800, 22.222
 76860, 28.407
 76920, 27.240
 76980, 36.160
 77040, 42.194
 77100, 29.718
 77160, 26.871
 77220, 42.573
 77280, 37.913
 77340, 42.887
 77400, 39.424
 77460, 37.510
 77520, 42.239
 77580, 49.683
 77640, 57.436
 77700, 24.855
 77760, 19.515
 77820, 11.961
 77880, 20.024
 77940, 18.897
 78000, 14.001
 78060, 13.350
 78120, 20.996
 78180, 14.343
 78240, 28.407
 78300, -9999.000
 78360, 44.335
 78420, 67.893
 78480, 54.567
 78540, 42.836
 78600, 66.768
 78660, 43.038
 78720, 73.535
 78780, 45.552
 78840, 69.023
 78900, 76.857
 78960, 112.643
 79020, 107.522
 79080, 86.011
 79140, 99.735
 79200, 112.920
 79260, 137.665
 79320, 109.528
 79380, 155.949
 79440, 184.488
 79500, 191.516
 79560, 213.192
 79620, 177.601
 79680, 182.942
 79740, 189.243
 79800, 200.024
 79860, 147.943
 79920, 114.953
 79980, 157.740
 80040, 93.471
 80100, 108.897
 80160, -9999.000
 80220, 120.822
 80280, 92.958
 80340, 73.831
 80400, 58.413
 80460, 62.303
 80520, 73.486
 80580, 67.647
 80640, 71.867
 80700, 77.354
 80760, 80.672
 80820, 76.079
 80880, 67.542
 80940, 59.071
 81000, 58.508
 81060, 62.649
 81120, 65.854
 81180, 60.897
 81240, 40.084
 81300, 42.556
 81360, 35.945
 81420, 55.247
 81480, 56.131
 81540, 49.627
 81600, 50.718
 81660, 64.078
 81720, 46.670
 81780, 63.206
 81840, 40.080
 81900, 45.392
 81960, 49.702
 82020, 30.107
 82080, 46.174
 82140, 47.186
 82200, 41.971
 82260, 37.823
 82320, 48.135
 82380, 54.297
 82440, 29.160
 82500, 28.702
 82560, 33.330
 82620, 37.923
 82680, 30.419
 82740, 20.082
 82800, 22.006
 82860, 26.258
 82920, 20.934
 82980, 16.786
 83040, 27.483
 83100, 20.215
 83160, 24.712
 83220, 30.828
 83280, 34.564
 83340, 31.150
 83400, 29.887
 83460, 34.017
 83520, 26.076
 83580, 33.087
 83640, 32.076
 83700, 24.989
 83760, 30.077
 83820, -9999.000
 83880, 32.374
 83940, 31.101
 84000, 27.288
 84060, 26.142
 84120, 35.443
 84180, 27.331
 84240, 16.706
 84300, 21.499
 84360, 25.010
 84420, 30.969
 84480, 19.843
 84540, 19.840
 84600, 22.296
 84660, 20.322
 84720, 23.606
 84780, 16.244
 84840, 24.092
 84900, 20.551
 84960, 18.562
 85020, 17.043
 85080, 24.782
 85140, 21.702
 85200, 29.871
 85260, 53.116
 85320, 34.711
 85380, 25.702
 85440, 31.409
 85500, 21.004
 85560, 16.909
 85620,  6.979
 85680, -9999.000
 85740, 11.073
 85800, 12.954
 85860, 16.932
 85920, 29.009
 85980, 34.442
 86040, 41.108
 86100, 37.447
 86160, 28.039
 86220, 24.832
 86280, 26.346
 86340, 32.552
