33, 1001
Michael A Robinson, Chris Jernigan, Subi Thakali
NOAA ESRL Chemical Sciences Laboratory and CIRES, U. of Colorado
NOAA Iodide CIMS Instrument
USOS
1, 1
2024, 07, 27, 2024, 07, 28
1
starttime_UTC, seconds_past_midnight, seconds_of_day_since_00:00:00_UTC
1
1
-9999
N2O5_NOAACIMS, pptv, Gas_N2O5_InSitu_S_AVMR, 
0
18
PI_CONTACT_INFO: 325 Broadway, R/CSD 7, Boulder, Colorado 80305; michael.a.robinson@noaa.gov; chris.jernigan@noaa.gov;
PLATFORM: NOAA CSL Mobile Lab
LOCATION: SLC, Utah
ASSOCIATED_DATA: 1Hz data also available on request.
INSTRUMENT_INFO: NOAA I- ToF CIMS
DATA_INFO: All data in parts per trillion by volume (pptv). 1 Hz data is available upon request.
UNCERTAINTY: TBD
ULOD_FLAG: -7777
ULOD_VALUE: N/A
LLOD_FLAG: -8888
LLOD_VALUE: N/A
DM_CONTACT_INFO: Nathan Howard; nathan.h.howard@noaa.gov
PROJECT_INFO: USOS, summer 2024. https://csl.noaa.gov/groups/csl7/measurements/2024usos/
STIPULATIONS_ON_USE: Users are strongly encouraged to contact the PI for proper data usage.
OTHER_COMMENTS: 
REVISION: RA
RA: Preliminary Data; For in-field use only
starttime_UTC, N2O5_NOAACIMS
     0, -9999.000
    60, -9999.000
   120, -9999.000
   180, -9999.000
   240, -9999.000
   300, -9999.000
   360, -9999.000
   420, -9999.000
   480, -9999.000
   540, -9999.000
   600, -9999.000
   660, -9999.000
   720, -9999.000
   780, -9999.000
   840, -9999.000
   900, -9999.000
   960, -9999.000
  1020, -9999.000
  1080, -9999.000
  1140, -9999.000
  1200, -9999.000
  1260, -9999.000
  1320, -9999.000
  1380, -9999.000
  1440, -9999.000
  1500, -9999.000
  1560, -9999.000
  1620, -9999.000
  1680, -9999.000
  1740, -9999.000
  1800, -9999.000
  1860, -9999.000
  1920, -9999.000
  1980, -9999.000
  2040, -9999.000
  2100, -9999.000
  2160, -9999.000
  2220, -9999.000
  2280, -9999.000
  2340, -9999.000
  2400, -9999.000
  2460, -9999.000
  2520, -9999.000
  2580, -9999.000
  2640, -9999.000
  2700, -9999.000
  2760, -9999.000
  2820, -9999.000
  2880, -9999.000
  2940, -9999.000
  3000, -9999.000
  3060, -9999.000
  3120, -9999.000
  3180, -9999.000
  3240, -9999.000
  3300, -9999.000
  3360, -9999.000
  3420, -9999.000
  3480, -9999.000
  3540, -9999.000
  3600, -9999.000
  3660, -9999.000
  3720, -9999.000
  3780, -9999.000
  3840, -9999.000
  3900, -9999.000
  3960, -9999.000
  4020, -9999.000
  4080, -9999.000
  4140, -9999.000
  4200, -9999.000
  4260, -9999.000
  4320, -9999.000
  4380, -9999.000
  4440, -9999.000
  4500, -9999.000
  4560, -9999.000
  4620, -9999.000
  4680, -9999.000
  4740, -9999.000
  4800, -9999.000
  4860, -9999.000
  4920, -9999.000
  4980, -9999.000
  5040, -9999.000
  5100, -9999.000
  5160, -9999.000
  5220, -9999.000
  5280, -9999.000
  5340, -9999.000
  5400, -9999.000
  5460, -9999.000
  5520, -9999.000
  5580, -9999.000
  5640, -9999.000
  5700,  1.215
  5760,  1.459
  5820,  1.431
  5880,  1.220
  5940,  1.401
  6000,  1.650
  6060,  1.432
  6120,  1.578
  6180,  1.212
  6240, -9999.000
  6300,  1.202
  6360,  1.451
  6420,  1.479
  6480,  1.643
  6540,  1.829
  6600,  1.279
  6660,  1.792
  6720,  1.834
  6780,  2.265
  6840,  1.690
  6900,  1.825
  6960,  1.829
  7020,  1.777
  7080,  1.745
  7140,  1.865
  7200,  1.833
  7260,  1.647
  7320,  2.915
  7380,  2.213
  7440,  2.276
  7500,  2.634
  7560,  3.092
  7620,  3.006
  7680,  3.066
  7740,  3.163
  7800,  6.500
  7860,  5.953
  7920,  7.287
  7980,  5.186
  8040,  3.724
  8100, -9999.000
  8160,  3.886
  8220,  5.547
  8280,  4.718
  8340,  6.853
  8400,  5.703
  8460,  7.784
  8520,  6.995
  8580,  4.758
  8640,  5.227
  8700,  4.897
  8760,  5.545
  8820,  8.068
  8880,  9.084
  8940,  9.233
  9000,  8.572
  9060,  8.161
  9120,  8.255
  9180, 11.368
  9240, 14.580
  9300, 11.986
  9360,  6.228
  9420,  6.344
  9480,  5.171
  9540,  4.247
  9600,  4.553
  9660,  3.764
  9720,  4.755
  9780,  3.655
  9840,  2.818
  9900,  2.364
  9960, -9999.000
 10020,  2.255
 10080,  2.353
 10140,  2.339
 10200,  2.418
 10260,  2.321
 10320,  2.618
 10380,  3.491
 10440,  2.177
 10500,  2.925
 10560,  2.141
 10620,  2.023
 10680,  2.000
 10740,  1.858
 10800,  1.590
 10860,  1.497
 10920,  1.581
 10980,  1.662
 11040,  1.728
 11100,  1.643
 11160,  1.299
 11220,  1.488
 11280,  2.109
 11340,  1.633
 11400,  1.669
 11460,  1.643
 11520,  1.784
 11580,  1.932
 11640,  2.564
 11700,  2.414
 11760,  2.523
 11820,  2.680
 11880,  2.322
 11940,  2.479
 12000,  2.214
 12060,  1.985
 12120,  1.657
 12180,  1.434
 12240,  1.690
 12300,  1.701
 12360,  1.663
 12420,  1.788
 12480,  1.746
 12540,  1.639
 12600,  1.367
 12660,  1.484
 12720,  1.595
 12780,  1.977
 12840,  1.557
 12900,  1.293
 12960,  1.598
 13020,  1.890
 13080,  1.591
 13140,  2.152
 13200,  1.852
 13260,  2.117
 13320,  2.021
 13380,  2.110
 13440,  2.072
 13500,  1.554
 13560,  2.220
 13620, -9999.000
 13680,  1.982
 13740,  1.613
 13800,  1.916
 13860,  1.901
 13920,  1.892
 13980,  1.828
 14040,  2.288
 14100,  1.762
 14160,  1.789
 14220,  2.094
 14280,  1.911
 14340,  1.804
 14400,  1.851
 14460,  1.935
 14520,  2.244
 14580,  2.638
 14640,  3.186
 14700,  2.314
 14760,  2.086
 14820,  1.982
 14880,  2.046
 14940,  2.223
 15000,  1.857
 15060,  1.880
 15120,  1.956
 15180,  1.808
 15240,  1.546
 15300,  1.663
 15360,  2.298
 15420,  2.325
 15480, -9999.000
 15540,  1.646
 15600,  1.456
 15660,  1.728
 15720,  1.583
 15780,  1.560
 15840,  1.907
 15900,  1.699
 15960,  1.839
 16020,  1.951
 16080,  1.487
 16140,  1.911
 16200,  2.234
 16260,  1.934
 16320,  2.162
 16380,  1.823
 16440,  1.846
 16500,  2.139
 16560,  1.613
 16620,  2.202
 16680,  2.170
 16740,  2.239
 16800,  2.577
 16860,  1.815
 16920,  2.415
 16980,  2.790
 17040,  2.370
 17100,  2.573
 17160,  2.116
 17220,  2.184
 17280,  2.777
 17340, -9999.000
 17400,  2.558
 17460,  2.866
 17520,  2.843
 17580,  3.141
 17640,  2.868
 17700,  2.648
 17760,  3.627
 17820,  3.474
 17880,  3.762
 17940,  3.340
 18000,  3.720
 18060,  4.586
 18120,  3.975
 18180,  4.213
 18240,  4.332
 18300,  5.350
 18360,  4.091
 18420,  3.734
 18480,  4.411
 18540,  4.301
 18600,  3.824
 18660,  4.221
 18720,  5.358
 18780,  5.438
 18840,  2.979
 18900,  4.286
 18960,  4.839
 19020,  5.173
 19080,  5.440
 19140,  5.206
 19200,  4.571
 19260,  5.835
 19320,  8.189
 19380,  5.904
 19440,  5.132
 19500,  3.793
 19560,  3.419
 19620,  3.669
 19680,  3.831
 19740,  4.125
 19800,  3.695
 19860,  4.217
 19920,  4.070
 19980,  3.178
 20040,  4.045
 20100,  3.428
 20160,  2.714
 20220,  3.487
 20280,  2.870
 20340,  3.940
 20400,  3.739
 20460,  2.867
 20520,  3.605
 20580,  3.757
 20640,  4.471
 20700,  4.316
 20760,  3.984
 20820,  5.340
 20880,  4.797
 20940,  3.952
 21000,  3.692
 21060,  4.676
 21120,  3.845
 21180,  3.588
 21240,  3.259
 21300,  4.300
 21360,  4.882
 21420,  4.972
 21480,  3.052
 21540,  2.337
 21600,  2.448
 21660,  2.544
 21720,  2.641
 21780,  2.886
 21840,  3.071
 21900,  3.084
 21960,  2.886
 22020,  2.542
 22080,  2.700
 22140,  2.536
 22200,  3.141
 22260,  3.478
 22320,  3.111
 22380,  4.351
 22440,  6.599
 22500,  7.448
 22560,  5.938
 22620,  5.622
 22680,  6.263
 22740,  3.772
 22800,  4.688
 22860,  2.869
 22920,  3.154
 22980,  4.837
 23040,  5.741
 23100,  8.110
 23160, 24.023
 23220, 31.027
 23280, 27.008
 23340, 25.696
 23400, 24.650
 23460, 26.819
 23520, 22.058
 23580, 16.257
 23640, 13.376
 23700, 11.006
 23760, 10.005
 23820,  9.931
 23880, 11.448
 23940, 19.941
 24000, 17.067
 24060, 23.907
 24120, 26.658
 24180, 27.849
 24240, 32.200
 24300, 43.892
 24360, 27.682
 24420, 47.583
 24480, 41.211
 24540, 46.168
 24600, 56.917
 24660, 60.119
 24720, -9999.000
 24780, 90.395
 24840, 81.384
 24900, 61.243
 24960, 37.515
 25020, 39.274
 25080, 37.702
 25140, 46.328
 25200, 45.071
 25260, 35.771
 25320, 28.835
 25380, 31.810
 25440, 24.053
 25500, 19.813
 25560, 18.413
 25620, 24.875
 25680, 30.830
 25740, 29.055
 25800, 36.675
 25860, 32.658
 25920, 26.838
 25980, 36.423
 26040, 29.547
 26100, 19.699
 26160, 15.704
 26220, 14.830
 26280, 12.260
 26340, 12.049
 26400, 11.932
 26460, 11.423
 26520, 19.757
 26580, 22.606
 26640, 21.526
 26700, 26.744
 26760, 20.350
 26820, 18.785
 26880, 21.833
 26940, 21.251
 27000, 17.650
 27060, 14.676
 27120, 13.134
 27180, 13.688
 27240, 14.524
 27300, 13.837
 27360, 10.409
 27420,  8.338
 27480, 11.186
 27540,  8.741
 27600,  8.410
 27660,  9.276
 27720,  9.821
 27780,  9.112
 27840,  6.374
 27900,  7.007
 27960,  6.961
 28020,  4.609
 28080,  4.292
 28140,  5.144
 28200,  3.935
 28260,  4.606
 28320,  4.428
 28380,  3.873
 28440,  3.212
 28500,  4.144
 28560,  4.798
 28620,  5.747
 28680,  5.405
 28740,  5.413
 28800,  6.792
 28860,  5.958
 28920,  4.874
 28980,  3.486
 29040,  3.714
 29100,  3.423
 29160,  3.472
 29220,  3.553
 29280,  3.688
 29340,  3.697
 29400,  3.420
 29460,  3.145
 29520,  3.514
 29580,  4.544
 29640,  4.337
 29700,  4.572
 29760,  4.074
 29820,  4.595
 29880,  4.243
 29940,  3.833
 30000,  3.947
 30060,  3.859
 30120,  3.402
 30180,  3.793
 30240,  3.270
 30300,  4.738
 30360,  4.293
 30420,  4.544
 30480,  3.965
 30540,  4.902
 30600,  5.036
 30660,  5.257
 30720,  5.476
 30780,  6.556
 30840,  7.265
 30900,  5.013
 30960,  6.940
 31020,  5.366
 31080,  6.964
 31140,  7.451
 31200,  6.798
 31260,  7.870
 31320,  7.791
 31380,  8.556
 31440, 10.352
 31500, 24.342
 31560, 52.485
 31620, 57.991
 31680, 48.988
 31740, 49.367
 31800, 51.075
 31860, 48.358
 31920, 48.589
 31980, 46.962
 32040, 58.092
 32100, -9999.000
 32160, 60.066
 32220, 57.152
 32280, 68.431
 32340, 65.746
 32400, 47.556
 32460, 51.872
 32520, 46.361
 32580, 38.861
 32640, 39.942
 32700, 35.768
 32760, 31.933
 32820, 36.591
 32880, 37.679
 32940, 36.801
 33000, 38.722
 33060, 37.033
 33120, 28.903
 33180, 29.414
 33240, 23.740
 33300, 15.114
 33360, 14.131
 33420, 10.448
 33480, 10.993
 33540,  8.197
 33600,  8.202
 33660, 10.116
 33720,  9.313
 33780,  8.483
 33840,  8.654
 33900, 13.697
 33960, -9999.000
 34020, 25.869
 34080, 11.566
 34140, 10.439
 34200, 27.009
 34260, 16.707
 34320,  7.475
 34380,  5.792
 34440, 13.981
 34500, 22.104
 34560, 19.397
 34620, 16.017
 34680, 14.686
 34740, 22.417
 34800, 20.219
 34860, 20.112
 34920, 16.933
 34980, 25.093
 35040, 19.380
 35100, 29.731
 35160, 22.016
 35220, 24.771
 35280, 18.532
 35340, 23.856
 35400, 17.607
 35460, 16.401
 35520, 11.795
 35580,  7.783
 35640,  7.169
 35700,  6.161
 35760,  5.829
 35820, -9999.000
 35880,  7.096
 35940,  8.703
 36000,  7.830
 36060,  8.003
 36120,  8.818
 36180, 13.319
 36240, 12.924
 36300, 10.212
 36360,  7.602
 36420,  6.473
 36480,  7.507
 36540,  6.994
 36600,  6.802
 36660,  6.201
 36720,  8.100
 36780,  8.856
 36840,  7.993
 36900,  9.092
 36960,  8.505
 37020,  8.839
 37080,  8.737
 37140,  6.402
 37200,  6.358
 37260,  5.880
 37320,  6.587
 37380,  6.956
 37440,  7.478
 37500,  6.311
 37560,  5.529
 37620,  5.664
 37680,  6.953
 37740,  7.201
 37800,  5.791
 37860,  6.547
 37920,  7.585
 37980,  6.178
 38040,  4.473
 38100,  6.748
 38160,  6.747
 38220,  6.563
 38280,  7.967
 38340,  5.310
 38400,  5.350
 38460,  4.312
 38520,  5.065
 38580,  6.835
 38640,  6.932
 38700,  4.986
 38760,  6.064
 38820,  4.931
 38880,  5.064
 38940,  5.015
 39000,  5.164
 39060,  5.186
 39120,  4.070
 39180,  5.440
 39240,  4.713
 39300,  5.601
 39360,  4.233
 39420,  3.993
 39480, -9999.000
 39540,  3.445
 39600,  4.209
 39660,  5.351
 39720,  5.257
 39780,  3.838
 39840,  5.079
 39900,  3.489
 39960,  3.565
 40020,  4.279
 40080,  5.154
 40140,  4.096
 40200,  3.766
 40260,  2.815
 40320,  2.913
 40380,  3.171
 40440,  3.476
 40500,  3.716
 40560,  4.660
 40620,  6.629
 40680,  3.888
 40740,  5.694
 40800,  6.490
 40860,  4.773
 40920,  3.833
 40980,  4.015
 41040,  3.521
 41100,  4.581
 41160,  4.279
 41220,  2.724
 41280,  4.048
 41340, -9999.000
 41400,  3.211
 41460,  3.680
 41520,  3.554
 41580,  2.769
 41640,  2.707
 41700,  3.587
 41760,  3.702
 41820,  3.367
 41880,  9.224
 41940,  5.535
 42000,  4.401
 42060,  6.344
 42120,  4.133
 42180,  3.459
 42240, 17.146
 42300, 42.009
 42360, 23.460
 42420, 21.752
 42480, 22.575
 42540, 21.068
 42600, 20.067
 42660, 25.276
 42720, 24.836
 42780, 21.002
 42840, 27.700
 42900, 31.242
 42960, 25.886
 43020, 27.484
 43080, 26.180
 43140, 33.442
 43200, -9999.000
 43260, 30.069
 43320, 25.935
 43380, 31.408
 43440, 35.768
 43500, 37.791
 43560, 38.413
 43620, 31.663
 43680, 30.392
 43740, 26.076
 43800, 33.265
 43860, 31.181
 43920, 29.783
 43980, 30.211
 44040, 20.218
 44100, 21.531
 44160, 28.027
 44220, 24.116
 44280, 20.204
 44340, 16.411
 44400, 15.314
 44460, 15.772
 44520, 18.828
 44580, 13.066
 44640, 15.649
 44700, 17.005
 44760, 15.808
 44820, 10.412
 44880,  5.046
 44940,  4.055
 45000,  3.634
 45060,  3.831
 45120,  3.461
 45180,  3.168
 45240,  3.404
 45300,  3.741
 45360,  3.320
 45420,  4.416
 45480,  3.705
 45540,  3.220
 45600,  4.867
 45660,  4.442
 45720,  5.580
 45780,  6.094
 45840,  5.692
 45900,  7.234
 45960,  5.601
 46020,  7.212
 46080,  7.193
 46140,  6.055
 46200,  4.737
 46260,  6.021
 46320,  7.264
 46380,  6.022
 46440,  5.732
 46500,  4.306
 46560,  5.574
 46620,  6.382
 46680,  6.417
 46740,  5.845
 46800, -9999.000
 46860, -9999.000
 46920, -9999.000
 46980, -9999.000
 47040, -9999.000
 47100, -9999.000
 47160, -9999.000
 47220, -9999.000
 47280, -9999.000
 47340, -9999.000
 47400, -9999.000
 47460, -9999.000
 47520, -9999.000
 47580, -9999.000
 47640, -9999.000
 47700, -9999.000
 47760, -9999.000
 47820, -9999.000
 47880, -9999.000
 47940, -9999.000
 48000, -9999.000
 48060, -9999.000
 48120, -9999.000
 48180, -9999.000
 48240, -9999.000
 48300, -9999.000
 48360, -9999.000
 48420, -9999.000
 48480, -9999.000
 48540, -9999.000
 48600, -9999.000
 48660, -9999.000
 48720, -9999.000
 48780, -9999.000
 48840, -9999.000
 48900, -9999.000
 48960, -9999.000
 49020, -9999.000
 49080, -9999.000
 49140, -9999.000
 49200, -9999.000
 49260, -9999.000
 49320, -9999.000
 49380, -9999.000
 49440, -9999.000
 49500, -9999.000
 49560, -9999.000
 49620, -9999.000
 49680, -9999.000
 49740, -9999.000
 49800, -9999.000
 49860, -9999.000
 49920, -9999.000
 49980, -9999.000
 50040, -9999.000
 50100, -9999.000
 50160, -9999.000
 50220, -9999.000
 50280, -9999.000
 50340, -9999.000
 50400, -9999.000
 50460, -9999.000
 50520, -9999.000
 50580, -9999.000
 50640, -9999.000
 50700, -9999.000
 50760, -9999.000
 50820, -9999.000
 50880, -9999.000
 50940, -9999.000
 51000, -9999.000
 51060, -9999.000
 51120, -9999.000
 51180, -9999.000
 51240, -9999.000
 51300, -9999.000
 51360, -9999.000
 51420, -9999.000
 51480, -9999.000
 51540, -9999.000
 51600, -9999.000
 51660, -9999.000
 51720, -9999.000
 51780, -9999.000
 51840, -9999.000
 51900, -9999.000
 51960, -9999.000
 52020, -9999.000
 52080, -9999.000
 52140, -9999.000
 52200, -9999.000
 52260, -9999.000
 52320, -9999.000
 52380, -9999.000
 52440, -9999.000
 52500, -9999.000
 52560, -9999.000
 52620, -9999.000
 52680, -9999.000
 52740, -9999.000
 52800, -9999.000
 52860, -9999.000
 52920, -9999.000
 52980, -9999.000
 53040, -9999.000
 53100, -9999.000
 53160, -9999.000
 53220, -9999.000
 53280, -9999.000
 53340, -9999.000
 53400, -9999.000
 53460, -9999.000
 53520, -9999.000
 53580, -9999.000
 53640, -9999.000
 53700, -9999.000
 53760, -9999.000
 53820, -9999.000
 53880, -9999.000
 53940, -9999.000
 54000, -9999.000
 54060, -9999.000
 54120, -9999.000
 54180, -9999.000
 54240, -9999.000
 54300, -9999.000
 54360, -9999.000
 54420, -9999.000
 54480, -9999.000
 54540, -9999.000
 54600, -9999.000
 54660, -9999.000
 54720, -9999.000
 54780, -9999.000
 54840, -9999.000
 54900, -9999.000
 54960, -9999.000
 55020, -9999.000
 55080, -9999.000
 55140, -9999.000
 55200, -9999.000
 55260, -9999.000
 55320, -9999.000
 55380, -9999.000
 55440, -9999.000
 55500, -9999.000
 55560, -9999.000
 55620, -9999.000
 55680, -9999.000
 55740, -9999.000
 55800, -9999.000
 55860, -9999.000
 55920, -9999.000
 55980, -9999.000
 56040, -9999.000
 56100, -9999.000
 56160, -9999.000
 56220, -9999.000
 56280, -9999.000
 56340, -9999.000
 56400, -9999.000
 56460, -9999.000
 56520, -9999.000
 56580, -9999.000
 56640, -9999.000
 56700, -9999.000
 56760, -9999.000
 56820, -9999.000
 56880, -9999.000
 56940, -9999.000
 57000, -9999.000
 57060, -9999.000
 57120, -9999.000
 57180, -9999.000
 57240, -9999.000
 57300, -9999.000
 57360, -9999.000
 57420, -9999.000
 57480, -9999.000
 57540, -9999.000
 57600, -9999.000
 57660, -9999.000
 57720, -9999.000
 57780, -9999.000
 57840, -9999.000
 57900, -9999.000
 57960, -9999.000
 58020, -9999.000
 58080, -9999.000
 58140, -9999.000
 58200, -9999.000
 58260, -9999.000
 58320, -9999.000
 58380, -9999.000
 58440, -9999.000
 58500, -9999.000
 58560, -9999.000
 58620, -9999.000
 58680, -9999.000
 58740, -9999.000
 58800, -9999.000
 58860, -9999.000
 58920, -9999.000
 58980, -9999.000
 59040, -9999.000
 59100, -9999.000
 59160, -9999.000
 59220, -9999.000
 59280, -9999.000
 59340, -9999.000
 59400, -9999.000
 59460, -9999.000
 59520, -9999.000
 59580, -9999.000
 59640, -9999.000
 59700, -9999.000
 59760, -9999.000
 59820, -9999.000
 59880, -9999.000
 59940, -9999.000
 60000, -9999.000
 60060, -9999.000
 60120, -9999.000
 60180, -9999.000
 60240, -9999.000
 60300, -9999.000
 60360, -9999.000
 60420, -9999.000
 60480, -9999.000
 60540, -9999.000
 60600, -9999.000
 60660, -9999.000
 60720, -9999.000
 60780, -9999.000
 60840, -9999.000
 60900, -9999.000
 60960, -9999.000
 61020, -9999.000
 61080, -9999.000
 61140, -9999.000
 61200, -9999.000
 61260, -9999.000
 61320, -9999.000
 61380, -9999.000
 61440, -9999.000
 61500, -9999.000
 61560, -9999.000
 61620, -9999.000
 61680, -9999.000
 61740, -9999.000
 61800, -9999.000
 61860, -9999.000
 61920, -9999.000
 61980, -9999.000
 62040, -9999.000
 62100, -9999.000
 62160, -9999.000
 62220, -9999.000
 62280, -9999.000
 62340, -9999.000
 62400, -9999.000
 62460, -9999.000
 62520, -9999.000
 62580, -9999.000
 62640, -9999.000
 62700, -9999.000
 62760, -9999.000
 62820, -9999.000
 62880, -9999.000
 62940, -9999.000
 63000, -9999.000
 63060, -9999.000
 63120, -9999.000
 63180, -9999.000
 63240, -9999.000
 63300, -9999.000
 63360, -9999.000
 63420, -9999.000
 63480, -9999.000
 63540, -9999.000
 63600, -9999.000
 63660, -9999.000
 63720, -9999.000
 63780, -9999.000
 63840, -9999.000
 63900, -9999.000
 63960, -9999.000
 64020, -9999.000
 64080, -9999.000
 64140, -9999.000
 64200, -9999.000
 64260, -9999.000
 64320, -9999.000
 64380, -9999.000
 64440, -9999.000
 64500, -9999.000
 64560, -9999.000
 64620, -9999.000
 64680, -9999.000
 64740, -9999.000
 64800, -9999.000
 64860, -9999.000
 64920, -9999.000
 64980, -9999.000
 65040, -9999.000
 65100, -9999.000
 65160, -9999.000
 65220, -9999.000
 65280, -9999.000
 65340, -9999.000
 65400, -9999.000
 65460, -9999.000
 65520, -9999.000
 65580, -9999.000
 65640, -9999.000
 65700, -9999.000
 65760, -9999.000
 65820, -9999.000
 65880, -9999.000
 65940, -9999.000
 66000, -9999.000
 66060, -9999.000
 66120, -9999.000
 66180, -9999.000
 66240, -9999.000
 66300, -9999.000
 66360, -9999.000
 66420, -9999.000
 66480, -9999.000
 66540, -9999.000
 66600, -9999.000
 66660, -9999.000
 66720, -9999.000
 66780, -9999.000
 66840, -9999.000
 66900, -9999.000
 66960, -9999.000
 67020, -9999.000
 67080, -9999.000
 67140, -9999.000
 67200, -9999.000
 67260, -9999.000
 67320, -9999.000
 67380, -9999.000
 67440, -9999.000
 67500, -9999.000
 67560, -9999.000
 67620, -9999.000
 67680, -9999.000
 67740, -9999.000
 67800, -9999.000
 67860, -9999.000
 67920, -9999.000
 67980, -9999.000
 68040, -9999.000
 68100, -9999.000
 68160, -9999.000
 68220, -9999.000
 68280, -9999.000
 68340, -9999.000
 68400, -9999.000
 68460, -9999.000
 68520, -9999.000
 68580, -9999.000
 68640, -9999.000
 68700, -9999.000
 68760, -9999.000
 68820, -9999.000
 68880, -9999.000
 68940, -9999.000
 69000, -9999.000
 69060, -9999.000
 69120, -9999.000
 69180, -9999.000
 69240, -9999.000
 69300, -9999.000
 69360, -9999.000
 69420, -9999.000
 69480, -9999.000
 69540, -9999.000
 69600, -9999.000
 69660, -9999.000
 69720, -9999.000
 69780, -9999.000
 69840, -9999.000
 69900, -9999.000
 69960, -9999.000
 70020, -9999.000
 70080, -9999.000
 70140, -9999.000
 70200, -9999.000
 70260, -9999.000
 70320, -9999.000
 70380, -9999.000
 70440, -9999.000
 70500, -9999.000
 70560, -9999.000
 70620, -9999.000
 70680, -9999.000
 70740, -9999.000
 70800, -9999.000
 70860, -9999.000
 70920, -9999.000
 70980, -9999.000
 71040, -9999.000
 71100, -9999.000
 71160, -9999.000
 71220, -9999.000
 71280, -9999.000
 71340, -9999.000
 71400, -9999.000
 71460, -9999.000
 71520, -9999.000
 71580, -9999.000
 71640, -9999.000
 71700, -9999.000
 71760, -9999.000
 71820, -9999.000
 71880, -9999.000
 71940, -9999.000
 72000, -9999.000
 72060, -9999.000
 72120, -9999.000
 72180, -9999.000
 72240, -9999.000
 72300, -9999.000
 72360, -9999.000
 72420, -9999.000
 72480, -9999.000
 72540, -9999.000
 72600, -9999.000
 72660, -9999.000
 72720, -9999.000
 72780, -9999.000
 72840, -9999.000
 72900, -9999.000
 72960, -9999.000
 73020, -9999.000
 73080, -9999.000
 73140, -9999.000
 73200, -9999.000
 73260, -9999.000
 73320, -9999.000
 73380, -9999.000
 73440, -9999.000
 73500, -9999.000
 73560, -9999.000
 73620, -9999.000
 73680, -9999.000
 73740, -9999.000
 73800, -9999.000
 73860, -9999.000
 73920, -9999.000
 73980, -9999.000
 74040, -9999.000
 74100, -9999.000
 74160, -9999.000
 74220, -9999.000
 74280, -9999.000
 74340, -9999.000
 74400, -9999.000
 74460, -9999.000
 74520, -9999.000
 74580, -9999.000
 74640, -9999.000
 74700, -9999.000
 74760, -9999.000
 74820, -9999.000
 74880, -9999.000
 74940, -9999.000
 75000, -9999.000
 75060, -9999.000
 75120, -9999.000
 75180, -9999.000
 75240, -9999.000
 75300, -9999.000
 75360, -9999.000
 75420, -9999.000
 75480, -9999.000
 75540, -9999.000
 75600, -9999.000
 75660, -9999.000
 75720, -9999.000
 75780, -9999.000
 75840, -9999.000
 75900, -9999.000
 75960, -9999.000
 76020, -9999.000
 76080, -9999.000
 76140, -9999.000
 76200, -9999.000
 76260, -9999.000
 76320, -9999.000
 76380, -9999.000
 76440, -9999.000
 76500, -9999.000
 76560, -9999.000
 76620, -9999.000
 76680, -9999.000
 76740, -9999.000
 76800, -9999.000
 76860, -9999.000
 76920, -9999.000
 76980, -9999.000
 77040, -9999.000
 77100, -9999.000
 77160, -9999.000
 77220, -9999.000
 77280, -9999.000
 77340, -9999.000
 77400, -9999.000
 77460, -9999.000
 77520, -9999.000
 77580, -9999.000
 77640, -9999.000
 77700, -9999.000
 77760, -9999.000
 77820, -9999.000
 77880, -9999.000
 77940, -9999.000
 78000, -9999.000
 78060, -9999.000
 78120, -9999.000
 78180, -9999.000
 78240, -9999.000
 78300, -9999.000
 78360, -9999.000
 78420, -9999.000
 78480, -9999.000
 78540, -9999.000
 78600, -9999.000
 78660, -9999.000
 78720, -9999.000
 78780, -9999.000
 78840, -9999.000
 78900, -9999.000
 78960, -9999.000
 79020, -9999.000
 79080, -9999.000
 79140, -9999.000
 79200, -9999.000
 79260, -9999.000
 79320, -9999.000
 79380, -9999.000
 79440, -9999.000
 79500, -9999.000
 79560, -9999.000
 79620, -9999.000
 79680, -9999.000
 79740, -9999.000
 79800, -9999.000
 79860, -9999.000
 79920, -9999.000
 79980, -9999.000
 80040, -9999.000
 80100, -9999.000
 80160, -9999.000
 80220, -9999.000
 80280, -9999.000
 80340, -9999.000
 80400, -9999.000
 80460, -9999.000
 80520, -9999.000
 80580, -9999.000
 80640, -9999.000
 80700, -9999.000
 80760, -9999.000
 80820, -9999.000
 80880, -9999.000
 80940, -9999.000
 81000, -9999.000
 81060, -9999.000
 81120, -9999.000
 81180, -9999.000
 81240, -9999.000
 81300, -9999.000
 81360, -9999.000
 81420, -9999.000
 81480, -9999.000
 81540, -9999.000
 81600, -9999.000
 81660, -9999.000
 81720, -9999.000
 81780, -9999.000
 81840, -9999.000
 81900, -9999.000
 81960, -9999.000
 82020, -9999.000
 82080, -9999.000
 82140, -9999.000
 82200, -9999.000
 82260, -9999.000
 82320, -9999.000
 82380, -9999.000
 82440, -9999.000
 82500, -9999.000
 82560, -9999.000
 82620, -9999.000
 82680, -9999.000
 82740, -9999.000
 82800, -9999.000
 82860, -9999.000
 82920, -9999.000
 82980, -9999.000
 83040, -9999.000
 83100, -9999.000
 83160, -9999.000
 83220, -9999.000
 83280, -9999.000
 83340, -9999.000
 83400, -9999.000
 83460, -9999.000
 83520, -9999.000
 83580, -9999.000
 83640, -9999.000
 83700, -9999.000
 83760, -9999.000
 83820, -9999.000
 83880, -9999.000
 83940, -9999.000
 84000, -9999.000
 84060, -9999.000
 84120, -9999.000
 84180, -9999.000
 84240, -9999.000
 84300, -9999.000
 84360, -9999.000
 84420, -9999.000
 84480, -9999.000
 84540, -9999.000
 84600, -9999.000
 84660, -9999.000
 84720, -9999.000
 84780, -9999.000
 84840, -9999.000
 84900, -9999.000
 84960, -9999.000
 85020, -9999.000
 85080, -9999.000
 85140, -9999.000
 85200, -9999.000
 85260, -9999.000
 85320, -9999.000
 85380, -9999.000
 85440, -9999.000
 85500, -9999.000
 85560, -9999.000
 85620, -9999.000
 85680, -9999.000
 85740, -9999.000
 85800, -9999.000
 85860, -9999.000
 85920, -9999.000
 85980, -9999.000
 86040, -9999.000
 86100, -9999.000
 86160, -9999.000
 86220, -9999.000
 86280, -9999.000
 86340, -9999.000
