33, 1001
Michael A Robinson, Chris Jernigan, Subi Thakali
NOAA ESRL Chemical Sciences Laboratory and CIRES, U. of Colorado
NOAA Iodide CIMS Instrument
USOS
1, 1
2024, 07, 29, 2024, 07, 30
1
starttime_UTC, seconds_past_midnight, seconds_of_day_since_00:00:00_UTC
1
1
-9999
HNO2_NOAACIMS, pptv, Gas_HNO2_InSitu_S_AVMR, 
0
18
PI_CONTACT_INFO: 325 Broadway, R/CSD 7, Boulder, Colorado 80305; michael.a.robinson@noaa.gov; chris.jernigan@noaa.gov;
PLATFORM: NOAA CSL Mobile Lab
LOCATION: SLC, Utah
ASSOCIATED_DATA: 1Hz data also available on request.
INSTRUMENT_INFO: NOAA I- ToF CIMS
DATA_INFO: All data in parts per trillion by volume (pptv). 1 Hz data is available upon request.
UNCERTAINTY: TBD
ULOD_FLAG: -7777
ULOD_VALUE: N/A
LLOD_FLAG: -8888
LLOD_VALUE: N/A
DM_CONTACT_INFO: Nathan Howard; nathan.h.howard@noaa.gov
PROJECT_INFO: USOS, summer 2024. https://csl.noaa.gov/groups/csl7/measurements/2024usos/
STIPULATIONS_ON_USE: Users are strongly encouraged to contact the PI for proper data usage.
OTHER_COMMENTS: 
REVISION: RA
RA: Preliminary Data; For in-field use only
starttime_UTC, HNO2_NOAACIMS
     0, 15.805
    60, 14.069
   120, 10.303
   180,  8.894
   240, 10.757
   300, 14.480
   360, -9999.000
   420, 18.549
   480, 14.115
   540,  9.890
   600, 13.074
   660, 11.619
   720, 13.286
   780, 14.780
   840, 13.533
   900, 14.358
   960, 12.086
  1020,  9.885
  1080, 11.303
  1140, 11.579
  1200,  7.730
  1260, 10.791
  1320, 11.088
  1380, 13.577
  1440, 11.937
  1500,  8.993
  1560,  6.491
  1620,  2.634
  1680, 10.750
  1740, 13.386
  1800, 11.832
  1860,  5.035
  1920, 10.001
  1980,  7.118
  2040,  8.483
  2100,  3.481
  2160,  9.034
  2220,  3.836
  2280,  4.161
  2340,  4.811
  2400,  5.967
  2460,  4.022
  2520,  9.661
  2580,  9.227
  2640,  9.497
  2700,  8.875
  2760, 10.034
  2820, 12.880
  2880,  9.155
  2940, 15.266
  3000, 17.269
  3060,  6.845
  3120,  8.005
  3180,  6.351
  3240, 12.866
  3300, 15.710
  3360, 19.374
  3420, 13.423
  3480,  9.963
  3540, 20.238
  3600, 16.673
  3660, 10.102
  3720, 23.746
  3780, 10.650
  3840,  7.918
  3900, 23.685
  3960, 18.211
  4020, 11.946
  4080, 30.099
  4140, 19.882
  4200, 15.502
  4260, 22.307
  4320, 35.513
  4380, 33.028
  4440, 29.128
  4500, 27.724
  4560, 30.259
  4620, 21.315
  4680, 24.780
  4740, 14.074
  4800, 27.736
  4860, 22.089
  4920, 24.795
  4980, 28.357
  5040, 24.686
  5100, 27.418
  5160, 22.619
  5220, 28.117
  5280, 26.618
  5340, 29.549
  5400, 25.841
  5460, 28.608
  5520, 35.358
  5580, 33.893
  5640, 29.880
  5700, 19.716
  5760, 35.385
  5820, 28.131
  5880, 32.297
  5940, 30.177
  6000, 31.538
  6060, 29.560
  6120, 40.969
  6180, 57.672
  6240, -9999.000
  6300, -9999.000
  6360, -9999.000
  6420, -9999.000
  6480, -9999.000
  6540, -9999.000
  6600, -9999.000
  6660, -9999.000
  6720, -9999.000
  6780, -9999.000
  6840, -9999.000
  6900, -9999.000
  6960, -9999.000
  7020, -9999.000
  7080, -9999.000
  7140, -9999.000
  7200, -9999.000
  7260, -9999.000
  7320, -9999.000
  7380, -9999.000
  7440, -9999.000
  7500, -9999.000
  7560, -9999.000
  7620, -9999.000
  7680, -9999.000
  7740, -9999.000
  7800, -9999.000
  7860, 116.008
  7920, 114.645
  7980, 77.769
  8040, 14.463
  8100, -3.601
  8160, -2.837
  8220, -10.815
  8280, -1.676
  8340, -9.888
  8400,  0.476
  8460, -6.424
  8520, -1.445
  8580,  1.469
  8640,  2.581
  8700, -3.715
  8760,  3.379
  8820,  7.746
  8880,  9.054
  8940,  4.133
  9000,  0.798
  9060,  2.272
  9120, 27.640
  9180, 21.702
  9240, 29.803
  9300, 22.805
  9360, 26.775
  9420, 36.733
  9480, 43.260
  9540, -9999.000
  9600, 46.727
  9660, 65.777
  9720, 52.651
  9780, 49.728
  9840, 27.459
  9900, 38.600
  9960, 40.539
 10020, 19.886
 10080, 28.922
 10140, 35.167
 10200, 36.325
 10260, 43.002
 10320, 38.267
 10380, 20.359
 10440, 40.414
 10500, 45.798
 10560, 44.964
 10620, 53.606
 10680, 27.568
 10740, 27.029
 10800, 70.920
 10860, 37.064
 10920, 46.343
 10980, 28.755
 11040, 36.831
 11100, 44.674
 11160, 53.384
 11220, 33.871
 11280, 39.767
 11340, 65.904
 11400, 70.448
 11460, 112.741
 11520, 69.886
 11580, 90.689
 11640, 92.242
 11700, 74.218
 11760, 91.020
 11820, 61.166
 11880, 61.334
 11940, 45.180
 12000, 48.659
 12060, 38.047
 12120, 42.296
 12180, 59.022
 12240, 31.763
 12300, 30.249
 12360, 37.302
 12420, 25.776
 12480, 42.007
 12540, 30.667
 12600, 47.069
 12660, 45.774
 12720, 56.385
 12780, 68.151
 12840, 38.321
 12900, 22.557
 12960, 39.612
 13020, 33.327
 13080, 44.596
 13140, 48.291
 13200, 45.995
 13260, 59.371
 13320, 60.160
 13380, 54.883
 13440, 43.859
 13500, 45.281
 13560, 45.245
 13620, 69.881
 13680, 90.333
 13740, 96.828
 13800, 84.095
 13860, 104.018
 13920, 59.475
 13980, 47.344
 14040, 73.347
 14100, 70.086
 14160, 84.820
 14220, 88.641
 14280, 120.717
 14340, 119.213
 14400, 108.822
 14460, 52.130
 14520, 59.313
 14580, 78.412
 14640, 71.703
 14700, 75.819
 14760, 92.166
 14820, 133.444
 14880, 152.650
 14940, 136.024
 15000, 128.129
 15060, 70.378
 15120, 132.120
 15180, 87.250
 15240, 73.290
 15300, 99.310
 15360, 73.892
 15420, 62.504
 15480, 82.196
 15540, 86.036
 15600, 86.171
 15660, 66.829
 15720, 91.993
 15780, 88.183
 15840, 49.964
 15900, 65.138
 15960, 54.772
 16020, 36.537
 16080, 59.650
 16140, 82.096
 16200, 62.474
 16260, 51.327
 16320, 26.879
 16380, 48.158
 16440, 48.183
 16500, 44.949
 16560, 57.784
 16620, 45.054
 16680, 32.779
 16740, 43.508
 16800, 30.945
 16860, 24.170
 16920, -9999.000
 16980, 26.617
 17040, 47.038
 17100, 42.226
 17160, 68.554
 17220, 90.190
 17280, 229.759
 17340, 266.921
 17400, 206.873
 17460, 121.626
 17520, 117.963
 17580, 111.467
 17640, 103.836
 17700, 87.759
 17760, 72.093
 17820, 67.762
 17880, 95.079
 17940, 52.640
 18000, 54.307
 18060, 65.149
 18120, 28.009
 18180, 28.737
 18240, 33.811
 18300, 20.517
 18360, 41.441
 18420, 26.607
 18480, 24.167
 18540, 36.725
 18600, 12.364
 18660, 22.621
 18720, 30.779
 18780, 32.627
 18840, 33.540
 18900, 43.009
 18960, 16.713
 19020, 20.895
 19080, 46.069
 19140, 39.691
 19200, 28.776
 19260, 40.283
 19320, 29.503
 19380, 23.792
 19440, 19.776
 19500, 30.420
 19560, 36.490
 19620, 31.215
 19680, 32.984
 19740, 46.089
 19800, 15.002
 19860, 23.409
 19920, 32.347
 19980, 32.163
 20040, 50.789
 20100, 50.863
 20160, 20.285
 20220, 14.272
 20280, 30.355
 20340, 22.085
 20400, 42.820
 20460, 60.779
 20520, 31.009
 20580, 36.316
 20640, -9999.000
 20700, 62.600
 20760, 52.119
 20820, 79.854
 20880, 62.057
 20940, 55.624
 21000, 76.232
 21060, 83.476
 21120, 112.362
 21180, 95.149
 21240, 98.325
 21300, 104.952
 21360, 75.658
 21420, 62.816
 21480, 56.134
 21540, 49.196
 21600, 34.813
 21660, 38.313
 21720, 19.866
 21780, 29.185
 21840, 50.976
 21900, 55.503
 21960, 69.184
 22020, 91.287
 22080, 47.819
 22140, 59.277
 22200, 72.981
 22260, 70.433
 22320, 65.085
 22380, 81.872
 22440, 94.993
 22500, 72.036
 22560, 76.304
 22620, 65.718
 22680, 86.880
 22740, 116.333
 22800, 111.129
 22860, 116.715
 22920, 141.608
 22980, 156.166
 23040, 163.013
 23100, 168.305
 23160, 159.986
 23220, 169.989
 23280, 188.833
 23340, 194.026
 23400, 153.140
 23460, 158.680
 23520, 174.887
 23580, 156.117
 23640, 180.361
 23700, 195.094
 23760, 150.110
 23820, 135.970
 23880, 151.722
 23940, 165.686
 24000, 144.859
 24060, 148.624
 24120, 137.143
 24180, 107.460
 24240, 148.871
 24300, -9999.000
 24360, 115.665
 24420, 123.394
 24480, 156.232
 24540, 170.434
 24600, 165.163
 24660, 170.124
 24720, 129.843
 24780, 129.644
 24840, 144.192
 24900, 146.180
 24960, 167.223
 25020, 160.044
 25080, 165.593
 25140, 156.270
 25200, 206.369
 25260, 210.104
 25320, 172.846
 25380, 152.828
 25440, 173.277
 25500, 175.992
 25560, 181.260
 25620, 192.484
 25680, 181.454
 25740, 178.578
 25800, 207.195
 25860, 214.412
 25920, 180.662
 25980, 170.311
 26040, 231.485
 26100, 227.322
 26160, -9999.000
 26220, 216.955
 26280, 200.304
 26340, 177.012
 26400, 202.607
 26460, 213.464
 26520, 181.724
 26580, 183.536
 26640, 251.007
 26700, 231.050
 26760, 242.314
 26820, 244.210
 26880, 197.041
 26940, 198.023
 27000, 193.798
 27060, 251.980
 27120, 224.936
 27180, 217.586
 27240, 265.448
 27300, 269.539
 27360, 245.588
 27420, 248.744
 27480, 240.420
 27540, 254.760
 27600, 273.096
 27660, 278.410
 27720, 250.296
 27780, 230.719
 27840, 245.082
 27900, 233.935
 27960, 244.383
 28020, -9999.000
 28080, 215.238
 28140, 216.875
 28200, 271.798
 28260, 255.633
 28320, 228.410
 28380, 228.835
 28440, 245.132
 28500, 219.645
 28560, 248.240
 28620, 239.061
 28680, 258.193
 28740, 271.852
 28800, 271.192
 28860, 250.280
 28920, 219.629
 28980, 238.748
 29040, 238.604
 29100, 201.073
 29160, 195.784
 29220, 156.813
 29280, 172.415
 29340, 191.703
 29400, 174.847
 29460, 123.573
 29520, 160.831
 29580, 170.273
 29640, 120.916
 29700, 173.982
 29760, 147.898
 29820, 148.649
 29880, 118.169
 29940, 112.053
 30000, 88.825
 30060, 88.863
 30120, 89.861
 30180, 85.926
 30240, 66.142
 30300, 43.170
 30360, 51.259
 30420, 52.601
 30480, 63.173
 30540, 60.369
 30600, 52.531
 30660, 61.054
 30720, 70.309
 30780, 60.033
 30840, 43.282
 30900, 29.668
 30960, 48.016
 31020, 78.859
 31080, 55.046
 31140, 46.289
 31200, 62.923
 31260, 60.261
 31320, 55.572
 31380, 48.558
 31440, 37.359
 31500, 33.866
 31560, 72.585
 31620, 88.896
 31680, -9999.000
 31740, 38.480
 31800, 51.731
 31860, 49.248
 31920, 53.948
 31980, 61.455
 32040, 58.912
 32100, 58.608
 32160, 71.482
 32220, 81.860
 32280, 48.734
 32340, 43.404
 32400, 85.831
 32460, 154.124
 32520, 137.680
 32580, 52.709
 32640, 61.279
 32700, 56.881
 32760, 71.888
 32820, 72.124
 32880, 55.417
 32940, 61.052
 33000, 102.591
 33060, 231.598
 33120, 131.412
 33180, 60.334
 33240, 58.433
 33300, 105.434
 33360, 66.401
 33420, 58.635
 33480, 60.286
 33540, 71.461
 33600, 68.700
 33660, 135.222
 33720, 118.354
 33780, 113.330
 33840, 142.557
 33900, 136.849
 33960, 133.676
 34020, 89.395
 34080, 121.529
 34140, 130.867
 34200, 97.534
 34260, 77.591
 34320, 79.550
 34380, 80.418
 34440, 82.598
 34500, 73.891
 34560, 72.763
 34620, 60.132
 34680, 98.031
 34740, 80.515
 34800, 85.912
 34860, 64.255
 34920, 79.831
 34980, 91.800
 35040, 77.497
 35100, 68.625
 35160, 65.896
 35220, 82.931
 35280, 45.554
 35340, 24.305
 35400, -9999.000
 35460, 45.702
 35520, 38.146
 35580, 36.609
 35640, 41.396
 35700, 52.445
 35760, 33.313
 35820, 35.792
 35880, 54.825
 35940, 67.562
 36000, 61.711
 36060, 50.080
 36120, 55.115
 36180, 52.379
 36240, 58.573
 36300, 49.998
 36360, 56.809
 36420, 53.738
 36480, 56.980
 36540, 70.076
 36600, 52.211
 36660, 40.762
 36720, 58.357
 36780, 63.077
 36840, 53.316
 36900, 41.012
 36960, 40.017
 37020, 49.317
 37080, 42.729
 37140, 32.282
 37200, 35.248
 37260, 28.821
 37320, 45.421
 37380, 39.907
 37440, 33.141
 37500, 32.102
 37560, 47.185
 37620, 55.794
 37680, 55.170
 37740, 50.507
 37800, 69.215
 37860, 76.034
 37920, 59.339
 37980, 47.180
 38040, 62.662
 38100, 89.687
 38160, 59.638
 38220, 58.311
 38280, 61.873
 38340, 50.351
 38400, 71.973
 38460, 75.407
 38520, 80.507
 38580, 106.865
 38640, 107.912
 38700, 124.766
 38760, 96.813
 38820, 100.579
 38880, 104.307
 38940, 99.146
 39000, 102.880
 39060, 99.910
 39120, 121.844
 39180, 107.366
 39240, 98.352
 39300, 68.642
 39360, 92.098
 39420, 94.718
 39480, 87.405
 39540, 73.532
 39600, 96.121
 39660, 113.252
 39720, 79.964
 39780, 65.997
 39840, 64.454
 39900, 83.500
 39960, 92.217
 40020, 101.498
 40080, 98.587
 40140, 92.259
 40200, 66.018
 40260, 68.711
 40320, 90.638
 40380, 81.960
 40440, 75.257
 40500, 60.560
 40560, 67.257
 40620, 72.772
 40680, 103.577
 40740, 86.678
 40800, 76.978
 40860, 70.922
 40920, 90.350
 40980, 95.886
 41040, 81.355
 41100, 116.040
 41160, 134.433
 41220, 144.711
 41280, 120.787
 41340, 76.451
 41400, 83.797
 41460, 101.090
 41520, 58.795
 41580, 65.004
 41640, 99.370
 41700, 125.418
 41760, 134.004
 41820, 174.858
 41880, 106.978
 41940, 128.159
 42000, 102.627
 42060, 106.624
 42120, 113.626
 42180, 113.219
 42240, 112.353
 42300, 86.492
 42360, 128.002
 42420, 146.349
 42480, 130.616
 42540, 115.978
 42600, 127.587
 42660, 121.985
 42720, 104.552
 42780, -9999.000
 42840, 113.537
 42900, 119.523
 42960, 150.203
 43020, 125.170
 43080, 123.275
 43140, 122.262
 43200, 85.597
 43260, 116.315
 43320, 184.935
 43380, 123.171
 43440, 131.018
 43500, 121.485
 43560, 102.972
 43620, 117.497
 43680, 154.539
 43740, 175.849
 43800, 108.259
 43860, 108.029
 43920, 48.786
 43980, 32.068
 44040, 34.792
 44100, 55.287
 44160, 98.307
 44220, 89.854
 44280, 112.742
 44340, 114.331
 44400, 114.037
 44460, 113.257
 44520, 101.595
 44580, 91.618
 44640, -9999.000
 44700, 37.248
 44760, 63.285
 44820, 104.712
 44880, 41.217
 44940, 45.957
 45000, 58.724
 45060, 88.322
 45120, 74.344
 45180, 45.702
 45240, 42.261
 45300, 66.875
 45360, 64.107
 45420, 56.862
 45480, 77.406
 45540, 87.219
 45600, 64.761
 45660, 64.230
 45720, 104.891
 45780, 164.528
 45840, 89.428
 45900, 55.329
 45960, 46.509
 46020, 80.480
 46080, 62.280
 46140, 51.863
 46200, 48.768
 46260, 69.020
 46320, 70.356
 46380, 54.977
 46440, 62.113
 46500, -9999.000
 46560, 39.278
 46620, 32.703
 46680, 47.549
 46740, 74.814
 46800, 84.994
 46860, 45.765
 46920, 60.620
 46980, 44.157
 47040, 54.764
 47100, 53.417
 47160, 51.816
 47220, 59.211
 47280, 68.757
 47340, 36.670
 47400, 46.559
 47460, 48.381
 47520, 57.567
 47580, 52.659
 47640, 37.219
 47700, 25.388
 47760, 33.529
 47820, 50.586
 47880, 49.726
 47940, 36.610
 48000, 55.384
 48060, 63.029
 48120, 57.363
 48180, 50.818
 48240, 35.051
 48300, 30.616
 48360, 35.132
 48420, 38.048
 48480, 32.022
 48540, 29.042
 48600, 26.582
 48660, 41.862
 48720, 30.978
 48780, 20.425
 48840, 27.209
 48900, 46.753
 48960, 39.802
 49020, 27.088
 49080, 22.940
 49140, 29.260
 49200, 54.245
 49260, 115.814
 49320, 66.501
 49380, 34.896
 49440, 30.409
 49500, 60.976
 49560, 43.328
 49620, 49.261
 49680, 49.115
 49740, 63.637
 49800, 63.943
 49860, 66.054
 49920, 60.010
 49980, 39.249
 50040, 46.110
 50100, 56.968
 50160, -9999.000
 50220, 61.290
 50280, 49.139
 50340, 43.401
 50400, 28.286
 50460, 48.136
 50520, 59.521
 50580, 23.120
 50640, 24.140
 50700, 34.055
 50760, 25.642
 50820, 44.007
 50880, 41.997
 50940, 35.692
 51000, 42.371
 51060, 46.856
 51120, 59.723
 51180, 63.548
 51240, 60.204
 51300, 59.408
 51360, 56.097
 51420, 44.721
 51480, 48.629
 51540, 47.610
 51600, 38.633
 51660, 45.192
 51720, 48.367
 51780, 51.347
 51840, 46.997
 51900, 34.929
 51960, 42.921
 52020, -9999.000
 52080, 34.307
 52140, 48.934
 52200, 50.563
 52260, 45.260
 52320, 43.562
 52380, 33.866
 52440, 36.521
 52500, 48.748
 52560, 49.740
 52620, 55.931
 52680, 59.851
 52740, 71.961
 52800, 59.397
 52860, 47.459
 52920, 56.173
 52980, 52.492
 53040, 57.172
 53100, 74.237
 53160, 67.864
 53220, 67.550
 53280, 67.003
 53340, 71.436
 53400, 59.060
 53460, 76.176
 53520, 79.755
 53580, 67.413
 53640, 92.470
 53700, 77.268
 53760, 70.455
 53820, 81.984
 53880, -9999.000
 53940, 91.028
 54000, 91.152
 54060, 96.364
 54120, 91.924
 54180, 106.780
 54240, 98.703
 54300, 113.353
 54360, 102.183
 54420, 100.393
 54480, 103.923
 54540, 91.348
 54600, 112.552
 54660, 121.453
 54720, 120.420
 54780, 131.176
 54840, 109.038
 54900, 94.705
 54960, 91.641
 55020, 70.496
 55080, 73.257
 55140, 87.493
 55200, 65.643
 55260, 63.346
 55320, 68.358
 55380, 68.469
 55440, 53.546
 55500, 55.121
 55560, 67.905
 55620, 68.996
 55680, 65.577
 55740, 88.057
 55800, 78.141
 55860, 85.775
 55920, 74.754
 55980, 62.882
 56040, 62.062
 56100, 72.637
 56160, 64.595
 56220, 63.445
 56280, 55.122
 56340, 61.672
 56400, 83.875
 56460, 64.552
 56520, 56.975
 56580, 75.198
 56640, 65.913
 56700, 69.042
 56760, 42.727
 56820, 48.590
 56880, 49.651
 56940, 55.344
 57000, 38.115
 57060, 45.658
 57120, 47.607
 57180, 44.624
 57240, 40.059
 57300, 44.429
 57360, 42.136
 57420, 50.453
 57480, 64.517
 57540, 39.840
 57600, 60.830
 57660, 56.353
 57720, 49.372
 57780, 31.673
 57840, 30.865
 57900, 38.097
 57960, 32.752
 58020, 29.208
 58080, 29.638
 58140, 21.559
 58200, 17.865
 58260, 20.486
 58320, 20.709
 58380, 24.510
 58440, 31.232
 58500, 19.833
 58560, 24.153
 58620, 12.177
 58680, 13.310
 58740, 16.928
 58800, 15.644
 58860, 15.934
 58920, 19.301
 58980, 19.750
 59040, 19.566
 59100, 18.772
 59160, 15.308
 59220, 13.470
 59280, 16.502
 59340, 12.887
 59400, 12.435
 59460, 10.195
 59520, 13.309
 59580, 20.882
 59640, 18.092
 59700, 16.603
 59760, 10.365
 59820,  9.056
 59880, 16.747
 59940, 18.037
 60000, 16.437
 60060, 19.756
 60120, 11.612
 60180, 12.424
 60240,  6.445
 60300, 19.122
 60360, 19.443
 60420, 10.976
 60480, 15.569
 60540, 15.722
 60600,  9.699
 60660, 11.860
 60720,  8.277
 60780,  7.073
 60840, 12.228
 60900,  7.676
 60960, 13.679
 61020, 10.181
 61080, 10.547
 61140,  5.244
 61200,  7.040
 61260, -9999.000
 61320, 11.947
 61380, 15.557
 61440,  9.763
 61500,  8.413
 61560,  7.552
 61620,  8.920
 61680, 10.985
 61740,  7.381
 61800, 12.743
 61860, 10.821
 61920, 15.160
 61980, 18.137
 62040, 12.744
 62100, 14.379
 62160, 22.317
 62220, 14.434
 62280,  9.514
 62340,  5.930
 62400, 13.133
 62460,  8.773
 62520, 14.113
 62580,  7.791
 62640, 10.092
 62700, 14.519
 62760, 18.521
 62820, 14.820
 62880, 26.119
 62940, 23.336
 63000, 15.364
 63060, 14.076
 63120, -9999.000
 63180,  9.585
 63240, 12.300
 63300, 12.842
 63360, 11.530
 63420, 16.147
 63480, 15.965
 63540,  7.016
 63600, 14.683
 63660, 19.972
 63720, 13.767
 63780, 10.979
 63840, 12.997
 63900, 19.329
 63960, 23.064
 64020, 18.836
 64080, 16.827
 64140, 19.044
 64200, 11.206
 64260, 13.779
 64320, 17.173
 64380, 15.126
 64440, 10.527
 64500, 16.224
 64560, 14.452
 64620, 16.183
 64680, 19.255
 64740, 19.047
 64800, 14.619
 64860, 13.293
 64920, 16.757
 64980, -9999.000
 65040, 11.127
 65100, 17.119
 65160, 18.753
 65220, 20.412
 65280, 15.953
 65340, 17.204
 65400, 18.846
 65460, 17.396
 65520, 19.392
 65580, 18.655
 65640, 20.669
 65700, 20.024
 65760, 15.360
 65820, 14.223
 65880, 11.142
 65940, 12.633
 66000, 11.199
 66060, 12.165
 66120, 13.435
 66180, 12.791
 66240, 19.085
 66300, 20.551
 66360, 16.337
 66420, 16.924
 66480, 15.250
 66540, 11.887
 66600, 14.826
 66660, 13.930
 66720, 13.695
 66780, 13.770
 66840, 12.102
 66900, 19.412
 66960, 15.876
 67020, 17.113
 67080, 12.081
 67140, 12.528
 67200, 14.353
 67260, 15.900
 67320, 13.910
 67380, 15.163
 67440, 16.957
 67500, 19.701
 67560, 10.311
 67620, 11.893
 67680, 12.806
 67740, 11.618
 67800, 14.756
 67860, 18.279
 67920, 11.953
 67980, 12.785
 68040,  8.159
 68100, 12.670
 68160, 17.492
 68220, 14.786
 68280, 20.417
 68340, 15.597
 68400, 13.956
 68460, 15.126
 68520, 23.157
 68580, 22.669
 68640, -9999.000
 68700, 12.039
 68760, 12.324
 68820, 13.407
 68880, 11.433
 68940, 25.409
 69000, 20.134
 69060, 13.027
 69120, 11.956
 69180,  7.979
 69240, 13.119
 69300, 18.755
 69360, 12.488
 69420,  9.137
 69480, 11.909
 69540, 14.869
 69600, 28.448
 69660, 20.069
 69720, 10.966
 69780,  8.235
 69840, 13.582
 69900, 16.541
 69960, 15.715
 70020, 14.668
 70080,  7.482
 70140,  9.999
 70200, 10.821
 70260, 14.259
 70320, 13.356
 70380,  9.623
 70440,  7.168
 70500, -9999.000
 70560, 12.097
 70620, 14.412
 70680, 15.306
 70740, 14.979
 70800, 16.128
 70860, 16.150
 70920, 12.351
 70980, 10.431
 71040,  7.310
 71100, 13.546
 71160, 20.559
 71220, 14.617
 71280, 18.915
 71340, 13.795
 71400, 19.822
 71460, 15.266
 71520, 14.715
 71580, 21.427
 71640, 19.329
 71700, 14.791
 71760, 18.302
 71820, 21.191
 71880, 16.609
 71940, 12.957
 72000, 13.694
 72060, 17.866
 72120, 21.140
 72180, 13.630
 72240, 21.647
 72300, 17.567
 72360, -9999.000
 72420, 24.087
 72480, 26.183
 72540, 26.915
 72600, 23.282
 72660, 21.387
 72720, 25.041
 72780, 16.780
 72840, 16.637
 72900, 21.540
 72960, 19.186
 73020, 19.257
 73080, 17.349
 73140, 13.587
 73200, 15.391
 73260, 23.626
 73320, 18.419
 73380, 16.283
 73440, 19.074
 73500, 14.286
 73560, 18.085
 73620, 27.460
 73680, 11.738
 73740, 20.186
 73800, 17.259
 73860, 25.656
 73920, 16.614
 73980, 22.105
 74040, 20.751
 74100, 20.697
 74160, 34.707
 74220, 16.336
 74280, 23.030
 74340,  5.140
 74400, 14.618
 74460, 16.214
 74520, 23.163
 74580, 13.673
 74640, 16.373
 74700,  8.189
 74760, 12.374
 74820, 17.863
 74880, 17.154
 74940, 12.903
 75000, 18.363
 75060,  9.759
 75120, 11.047
 75180, 12.159
 75240, 12.065
 75300, 11.153
 75360, 25.675
 75420, 23.240
 75480, 13.646
 75540, 14.234
 75600, 14.165
 75660, 10.267
 75720,  8.343
 75780, 15.447
 75840,  7.393
 75900, 14.761
 75960,  5.476
 76020, 15.207
 76080,  4.589
 76140,  8.355
 76200, 15.104
 76260, 13.347
 76320, 14.977
 76380,  8.863
 76440, 12.611
 76500, 14.358
 76560, 16.426
 76620, 11.203
 76680, 11.955
 76740, 14.592
 76800, 11.702
 76860, 14.912
 76920, 24.087
 76980, 11.189
 77040, 16.315
 77100, 23.945
 77160, 18.564
 77220, 15.839
 77280,  4.093
 77340,  7.838
 77400, 11.653
 77460, 20.406
 77520,  7.472
 77580, 11.580
 77640, 20.247
 77700, 15.994
 77760, 17.328
 77820,  9.221
 77880, 12.615
 77940, 30.546
 78000, 17.099
 78060,  6.159
 78120, 16.862
 78180, 13.436
 78240, 13.945
 78300,  9.435
 78360, 15.027
 78420, 17.242
 78480, 13.860
 78540, 16.203
 78600, 15.908
 78660, 10.385
 78720, 16.187
 78780, 26.874
 78840, 11.904
 78900, 17.539
 78960, 14.035
 79020, 31.636
 79080, 33.175
 79140, 30.002
 79200, 22.168
 79260, 14.010
 79320, 16.554
 79380, 11.732
 79440, 13.363
 79500, 17.668
 79560, 15.896
 79620, 18.599
 79680, 12.515
 79740, -9999.000
 79800, 13.190
 79860, 11.335
 79920, 11.146
 79980, 14.688
 80040, 16.422
 80100, 20.550
 80160, 23.545
 80220, 12.179
 80280,  8.977
 80340,  8.825
 80400, 10.281
 80460, 14.576
 80520, 12.408
 80580,  9.405
 80640, 32.369
 80700, 16.083
 80760, 19.510
 80820, 15.227
 80880, 15.493
 80940, 24.903
 81000, 20.810
 81060, 19.646
 81120, 23.825
 81180, 25.835
 81240, 17.301
 81300, 24.026
 81360, 17.490
 81420, 21.095
 81480, 19.639
 81540, 10.304
 81600, -9999.000
 81660, 13.591
 81720, 12.796
 81780, 15.095
 81840, 12.886
 81900, 16.096
 81960, 14.277
 82020,  8.478
 82080, 15.886
 82140, 12.327
 82200, 17.406
 82260, 14.322
 82320, 16.532
 82380,  7.802
 82440,  7.353
 82500,  8.184
 82560, 20.623
 82620, 16.403
 82680, 10.827
 82740, 17.100
 82800, 12.638
 82860, 16.747
 82920, 11.891
 82980, 17.764
 83040, 17.764
 83100, 14.368
 83160, 16.525
 83220, 19.523
 83280,  7.215
 83340, 13.803
 83400, 14.327
 83460, -9999.000
 83520, 17.352
 83580, 18.440
 83640, 17.576
 83700,  8.310
 83760,  8.403
 83820,  7.921
 83880, 13.569
 83940,  9.418
 84000, 12.055
 84060,  9.416
 84120, 17.243
 84180, 15.848
 84240,  5.729
 84300, 11.114
 84360, 16.841
 84420, 10.799
 84480, 13.302
 84540, 10.963
 84600, 19.586
 84660, 22.132
 84720, 21.593
 84780, 19.097
 84840, 24.141
 84900, 12.534
 84960,  8.953
 85020, 10.606
 85080, 11.656
 85140, 19.027
 85200, 25.325
 85260, 39.338
 85320, 12.607
 85380, 11.722
 85440, 15.178
 85500,  5.575
 85560, 14.005
 85620, 11.090
 85680, 27.715
 85740, 19.523
 85800, 17.754
 85860, 16.256
 85920, 16.830
 85980,  9.861
 86040, 15.490
 86100, 18.404
 86160, 15.695
 86220, 18.402
 86280, 11.436
 86340, 15.101
