33, 1001
Michael A Robinson, Chris Jernigan, Subi Thakali
NOAA ESRL Chemical Sciences Laboratory and CIRES, U. of Colorado
NOAA Iodide CIMS Instrument
USOS
1, 1
2024, 07, 29, 2024, 07, 30
1
starttime_UTC, seconds_past_midnight, seconds_of_day_since_00:00:00_UTC
1
1
-9999
N2O5_NOAACIMS, pptv, Gas_N2O5_InSitu_S_AVMR, 
0
18
PI_CONTACT_INFO: 325 Broadway, R/CSD 7, Boulder, Colorado 80305; michael.a.robinson@noaa.gov; chris.jernigan@noaa.gov;
PLATFORM: NOAA CSL Mobile Lab
LOCATION: SLC, Utah
ASSOCIATED_DATA: 1Hz data also available on request.
INSTRUMENT_INFO: NOAA I- ToF CIMS
DATA_INFO: All data in parts per trillion by volume (pptv). 1 Hz data is available upon request.
UNCERTAINTY: TBD
ULOD_FLAG: -7777
ULOD_VALUE: N/A
LLOD_FLAG: -8888
LLOD_VALUE: N/A
DM_CONTACT_INFO: Nathan Howard; nathan.h.howard@noaa.gov
PROJECT_INFO: USOS, summer 2024. https://csl.noaa.gov/groups/csl7/measurements/2024usos/
STIPULATIONS_ON_USE: Users are strongly encouraged to contact the PI for proper data usage.
OTHER_COMMENTS: 
REVISION: RA
RA: Preliminary Data; For in-field use only
starttime_UTC, N2O5_NOAACIMS
     0, -9999.000
    60, -9999.000
   120, -9999.000
   180, -9999.000
   240, -9999.000
   300, -9999.000
   360, -9999.000
   420, -9999.000
   480, -9999.000
   540, -9999.000
   600, -9999.000
   660, -9999.000
   720, -9999.000
   780, -9999.000
   840, -9999.000
   900, -9999.000
   960, -9999.000
  1020, -9999.000
  1080, -9999.000
  1140, -9999.000
  1200, -9999.000
  1260, -9999.000
  1320, -9999.000
  1380, -9999.000
  1440, -9999.000
  1500, -9999.000
  1560, -9999.000
  1620, -9999.000
  1680, -9999.000
  1740, -9999.000
  1800, -9999.000
  1860, -9999.000
  1920, -9999.000
  1980, -9999.000
  2040, -9999.000
  2100, -9999.000
  2160, -9999.000
  2220, -9999.000
  2280, -9999.000
  2340, -9999.000
  2400, -9999.000
  2460, -9999.000
  2520, -9999.000
  2580, -9999.000
  2640, -9999.000
  2700, -9999.000
  2760, -9999.000
  2820, -9999.000
  2880, -9999.000
  2940, -9999.000
  3000, -9999.000
  3060, -9999.000
  3120, -9999.000
  3180, -9999.000
  3240, -9999.000
  3300, -9999.000
  3360, -9999.000
  3420, -9999.000
  3480, -9999.000
  3540, -9999.000
  3600, -9999.000
  3660, -9999.000
  3720, -9999.000
  3780, -9999.000
  3840, -9999.000
  3900, -9999.000
  3960, -9999.000
  4020, -9999.000
  4080, -9999.000
  4140, -9999.000
  4200, -9999.000
  4260, -9999.000
  4320, -9999.000
  4380, -9999.000
  4440, -9999.000
  4500, -9999.000
  4560, -9999.000
  4620, -9999.000
  4680, -9999.000
  4740, -9999.000
  4800, -9999.000
  4860, -9999.000
  4920, -9999.000
  4980, -9999.000
  5040, -9999.000
  5100, -9999.000
  5160, -9999.000
  5220, -9999.000
  5280, -9999.000
  5340, -9999.000
  5400,  1.503
  5460,  1.397
  5520,  1.338
  5580,  1.444
  5640,  1.372
  5700,  1.322
  5760,  1.410
  5820,  1.315
  5880,  1.567
  5940,  1.493
  6000,  1.731
  6060,  1.813
  6120,  1.718
  6180,  1.071
  6240, -9999.000
  6300, -9999.000
  6360, -9999.000
  6420, -9999.000
  6480, -9999.000
  6540, -9999.000
  6600, -9999.000
  6660, -9999.000
  6720, -9999.000
  6780, -9999.000
  6840, -9999.000
  6900, -9999.000
  6960, -9999.000
  7020, -9999.000
  7080, -9999.000
  7140, -9999.000
  7200, -9999.000
  7260, -9999.000
  7320, -9999.000
  7380, -9999.000
  7440, -9999.000
  7500, -9999.000
  7560, -9999.000
  7620, -9999.000
  7680, -9999.000
  7740, -9999.000
  7800, -9999.000
  7860,  0.990
  7920,  1.034
  7980,  1.163
  8040,  1.154
  8100,  1.143
  8160,  1.046
  8220,  0.969
  8280,  1.258
  8340,  1.543
  8400,  1.417
  8460,  1.741
  8520,  1.503
  8580,  2.038
  8640,  1.909
  8700,  1.896
  8760,  1.554
  8820,  1.892
  8880,  2.324
  8940,  1.965
  9000,  2.480
  9060,  2.152
  9120,  2.000
  9180,  2.058
  9240,  1.759
  9300,  2.054
  9360,  2.488
  9420,  2.336
  9480,  2.147
  9540, -9999.000
  9600,  5.464
  9660,  5.682
  9720,  4.878
  9780,  2.258
  9840,  1.977
  9900,  2.218
  9960,  2.155
 10020,  1.674
 10080,  1.487
 10140,  1.376
 10200,  1.468
 10260,  1.649
 10320,  1.392
 10380,  0.940
 10440,  1.301
 10500,  1.223
 10560,  1.084
 10620,  1.306
 10680,  0.923
 10740,  0.864
 10800,  1.168
 10860,  0.835
 10920,  1.375
 10980,  0.734
 11040,  1.145
 11100,  1.057
 11160,  1.081
 11220,  0.818
 11280,  0.739
 11340,  0.900
 11400,  0.794
 11460,  1.298
 11520,  0.569
 11580,  0.756
 11640,  0.775
 11700,  0.831
 11760,  0.862
 11820,  0.733
 11880,  0.805
 11940,  0.747
 12000,  0.867
 12060,  0.769
 12120,  0.766
 12180,  0.699
 12240,  0.541
 12300,  0.777
 12360,  0.741
 12420,  0.701
 12480,  0.749
 12540,  0.539
 12600,  0.711
 12660,  0.794
 12720,  0.938
 12780,  1.200
 12840,  0.742
 12900,  0.677
 12960,  0.605
 13020,  0.801
 13080,  0.622
 13140,  1.018
 13200,  0.854
 13260,  0.680
 13320,  1.047
 13380,  0.997
 13440,  0.965
 13500,  0.920
 13560,  1.100
 13620,  1.208
 13680,  1.430
 13740,  1.255
 13800,  1.760
 13860,  2.150
 13920,  2.036
 13980,  1.847
 14040,  2.158
 14100,  2.363
 14160,  2.556
 14220,  3.298
 14280,  3.117
 14340,  3.328
 14400,  3.671
 14460,  3.109
 14520,  3.123
 14580,  3.209
 14640,  4.121
 14700,  3.805
 14760,  3.381
 14820,  2.625
 14880,  3.968
 14940,  3.549
 15000,  2.862
 15060,  3.957
 15120,  2.633
 15180,  2.921
 15240,  3.423
 15300,  3.224
 15360,  2.283
 15420,  3.116
 15480,  2.990
 15540,  3.954
 15600,  3.461
 15660,  3.408
 15720,  3.393
 15780,  4.129
 15840,  3.535
 15900,  4.785
 15960,  5.190
 16020,  3.289
 16080,  2.783
 16140,  4.352
 16200,  3.299
 16260,  2.051
 16320,  1.152
 16380,  1.720
 16440,  2.035
 16500,  2.285
 16560,  2.174
 16620,  1.943
 16680,  1.805
 16740,  2.258
 16800,  2.003
 16860,  1.913
 16920, -9999.000
 16980,  1.971
 17040,  2.088
 17100,  1.912
 17160,  2.368
 17220,  2.102
 17280,  2.086
 17340,  2.205
 17400,  2.181
 17460,  1.717
 17520,  2.851
 17580,  3.697
 17640,  4.233
 17700,  3.619
 17760,  3.580
 17820,  3.120
 17880,  1.848
 17940,  1.980
 18000,  2.497
 18060,  2.612
 18120,  1.882
 18180,  1.878
 18240,  2.318
 18300,  2.007
 18360,  2.280
 18420,  2.031
 18480,  2.121
 18540,  2.438
 18600,  2.115
 18660,  1.971
 18720,  1.930
 18780,  3.024
 18840,  3.046
 18900,  2.629
 18960,  2.156
 19020,  2.120
 19080,  1.863
 19140,  2.879
 19200,  2.584
 19260,  3.096
 19320,  2.645
 19380,  2.821
 19440,  2.500
 19500,  2.296
 19560,  2.290
 19620,  2.178
 19680,  2.380
 19740,  2.015
 19800,  2.045
 19860,  1.951
 19920,  2.306
 19980,  2.179
 20040,  2.034
 20100,  2.334
 20160,  1.841
 20220,  2.117
 20280,  1.814
 20340,  1.842
 20400,  2.174
 20460,  2.389
 20520,  2.140
 20580,  1.849
 20640, -9999.000
 20700,  1.989
 20760,  1.829
 20820,  2.702
 20880,  3.341
 20940,  4.132
 21000,  4.634
 21060,  8.590
 21120,  9.536
 21180,  7.922
 21240, 11.001
 21300, 10.974
 21360,  5.904
 21420,  3.565
 21480,  2.621
 21540,  2.376
 21600,  2.271
 21660,  2.175
 21720,  2.060
 21780,  1.972
 21840,  2.724
 21900,  2.970
 21960,  4.765
 22020,  5.712
 22080,  5.956
 22140,  6.432
 22200,  7.406
 22260,  6.364
 22320, 10.569
 22380,  6.631
 22440,  5.563
 22500, 13.801
 22560, 16.648
 22620, 15.761
 22680, 14.219
 22740, 18.626
 22800, 24.196
 22860, 28.270
 22920, 36.266
 22980, 37.426
 23040, 34.677
 23100, 30.385
 23160, 25.023
 23220, 30.825
 23280, 28.249
 23340, 29.498
 23400, 32.237
 23460, 32.872
 23520, 28.394
 23580, 25.940
 23640, 32.185
 23700, 32.162
 23760, 28.908
 23820, 31.341
 23880, 28.578
 23940, 24.030
 24000, 25.209
 24060, 26.702
 24120, 22.193
 24180, 29.398
 24240, 31.089
 24300, -9999.000
 24360, 27.974
 24420, 26.986
 24480, 22.127
 24540, 20.475
 24600, 26.013
 24660, 29.467
 24720, 32.381
 24780, 31.152
 24840, 37.960
 24900, 42.267
 24960, 30.221
 25020, 32.154
 25080, 27.011
 25140, 16.198
 25200, 13.394
 25260, 13.201
 25320, 18.706
 25380, 26.507
 25440, 18.770
 25500, 22.985
 25560, 20.731
 25620, 17.456
 25680, 14.187
 25740, 17.937
 25800, 18.774
 25860, 23.879
 25920, 20.916
 25980, 18.940
 26040, 10.340
 26100, 22.778
 26160, -9999.000
 26220, 23.367
 26280, 22.341
 26340, 23.281
 26400, 26.874
 26460, 24.540
 26520, 20.376
 26580, 19.672
 26640, 23.011
 26700, 29.243
 26760, 28.936
 26820, 26.799
 26880, 31.634
 26940, 27.966
 27000, 35.185
 27060, 26.365
 27120, 20.581
 27180, 18.425
 27240, 15.237
 27300, 19.846
 27360, 22.116
 27420, 23.291
 27480, 25.743
 27540, 15.284
 27600, 18.884
 27660, 22.611
 27720, 18.022
 27780, 22.602
 27840, 23.164
 27900, 26.764
 27960, 24.227
 28020, -9999.000
 28080, 19.355
 28140, 18.613
 28200, 15.676
 28260, 13.183
 28320, 10.772
 28380,  9.066
 28440, 10.867
 28500, 12.686
 28560, 14.230
 28620, 15.671
 28680, 18.352
 28740, 15.788
 28800, 12.462
 28860, 18.843
 28920, 17.183
 28980, 13.331
 29040, 15.979
 29100, 16.672
 29160, 11.994
 29220,  9.653
 29280,  9.468
 29340,  7.831
 29400,  7.162
 29460,  6.405
 29520,  6.244
 29580,  5.895
 29640,  5.100
 29700,  4.993
 29760,  4.075
 29820,  4.593
 29880,  4.476
 29940,  4.043
 30000,  3.895
 30060,  2.515
 30120,  3.453
 30180,  3.964
 30240,  3.292
 30300,  2.041
 30360,  2.237
 30420,  2.362
 30480,  2.980
 30540,  3.205
 30600,  3.322
 30660,  3.753
 30720,  2.965
 30780,  2.685
 30840,  2.362
 30900,  2.178
 30960,  1.982
 31020,  2.665
 31080,  2.524
 31140,  4.069
 31200,  3.729
 31260,  3.307
 31320,  2.681
 31380,  2.288
 31440,  2.048
 31500,  2.438
 31560,  3.033
 31620,  3.091
 31680, -9999.000
 31740,  2.622
 31800,  2.792
 31860,  2.722
 31920,  3.287
 31980,  3.095
 32040,  2.811
 32100,  2.757
 32160,  3.162
 32220,  3.018
 32280,  2.523
 32340,  2.309
 32400,  2.785
 32460,  3.272
 32520,  2.740
 32580,  3.333
 32640,  2.950
 32700,  2.947
 32760,  2.931
 32820,  3.010
 32880,  2.739
 32940,  3.394
 33000,  3.408
 33060,  2.607
 33120,  2.394
 33180,  2.653
 33240,  3.124
 33300,  4.030
 33360,  3.685
 33420,  2.851
 33480,  2.092
 33540,  1.416
 33600,  3.259
 33660,  5.992
 33720,  3.688
 33780,  3.928
 33840,  5.338
 33900, 12.464
 33960, 11.455
 34020, 10.969
 34080, 11.102
 34140,  7.402
 34200,  5.025
 34260,  5.240
 34320,  6.053
 34380, 12.420
 34440, 10.997
 34500,  6.837
 34560,  6.341
 34620,  5.909
 34680,  4.915
 34740,  4.227
 34800,  3.981
 34860,  4.073
 34920,  3.824
 34980,  4.941
 35040,  4.527
 35100,  3.264
 35160,  3.671
 35220,  4.078
 35280,  3.809
 35340,  3.325
 35400, -9999.000
 35460,  3.662
 35520,  3.219
 35580,  2.690
 35640,  3.014
 35700,  3.236
 35760,  2.963
 35820,  2.633
 35880,  3.291
 35940,  3.650
 36000,  4.066
 36060,  4.239
 36120,  4.067
 36180,  3.975
 36240,  4.028
 36300,  4.472
 36360,  4.489
 36420,  3.861
 36480,  4.478
 36540,  5.513
 36600,  5.180
 36660,  4.592
 36720,  4.414
 36780,  4.324
 36840,  3.569
 36900,  3.495
 36960,  3.342
 37020,  3.076
 37080,  2.833
 37140,  2.952
 37200,  3.121
 37260,  2.862
 37320,  3.914
 37380,  3.540
 37440,  3.291
 37500,  3.186
 37560,  3.739
 37620,  3.600
 37680,  3.081
 37740,  3.733
 37800,  5.014
 37860,  6.221
 37920,  5.814
 37980,  5.601
 38040,  5.367
 38100,  4.012
 38160,  3.219
 38220,  2.769
 38280,  2.540
 38340,  2.985
 38400,  3.773
 38460,  5.217
 38520,  4.049
 38580,  5.020
 38640,  6.729
 38700,  8.084
 38760,  9.743
 38820,  9.568
 38880, 11.548
 38940,  7.928
 39000,  6.418
 39060, 12.612
 39120,  9.093
 39180, 10.342
 39240,  9.120
 39300,  7.960
 39360, 10.820
 39420, 14.151
 39480,  8.042
 39540,  7.189
 39600,  9.714
 39660, 11.588
 39720, 13.378
 39780, 11.724
 39840, 14.065
 39900, 14.550
 39960, 10.769
 40020,  7.709
 40080,  6.030
 40140,  5.887
 40200, 13.119
 40260, 12.808
 40320,  9.492
 40380,  7.745
 40440, 11.204
 40500, 15.223
 40560, 14.848
 40620,  9.192
 40680,  6.093
 40740,  8.511
 40800,  8.122
 40860,  9.446
 40920,  9.836
 40980, 10.940
 41040,  8.929
 41100,  7.012
 41160,  9.177
 41220,  5.241
 41280,  8.645
 41340,  6.172
 41400, 11.026
 41460,  7.766
 41520, 10.424
 41580,  9.704
 41640,  9.349
 41700,  8.288
 41760,  6.860
 41820,  5.476
 41880,  7.394
 41940,  8.888
 42000,  7.632
 42060,  9.394
 42120,  5.519
 42180,  7.255
 42240,  5.738
 42300,  6.813
 42360,  7.659
 42420,  6.755
 42480,  6.689
 42540,  4.277
 42600,  6.627
 42660,  3.339
 42720,  5.001
 42780, -9999.000
 42840,  5.638
 42900,  5.234
 42960, 14.932
 43020, 13.013
 43080,  9.392
 43140,  7.671
 43200,  6.339
 43260,  4.003
 43320,  3.431
 43380,  5.876
 43440,  6.152
 43500,  5.448
 43560,  7.388
 43620,  9.013
 43680,  4.465
 43740,  9.165
 43800, 10.899
 43860,  7.620
 43920,  5.958
 43980,  5.786
 44040,  5.272
 44100,  6.479
 44160,  5.572
 44220, 10.407
 44280, 10.220
 44340, 11.208
 44400, 12.599
 44460,  5.319
 44520,  4.285
 44580,  3.876
 44640, -9999.000
 44700,  3.509
 44760,  4.349
 44820,  3.567
 44880,  3.715
 44940,  3.238
 45000,  5.842
 45060,  4.879
 45120,  4.106
 45180,  3.718
 45240,  4.577
 45300,  4.307
 45360,  5.548
 45420,  4.557
 45480,  3.907
 45540,  2.925
 45600,  3.246
 45660,  2.807
 45720,  2.754
 45780,  2.447
 45840,  2.864
 45900,  2.642
 45960,  3.239
 46020,  2.703
 46080,  3.035
 46140,  2.786
 46200,  3.474
 46260,  3.223
 46320,  4.336
 46380,  5.297
 46440,  5.727
 46500, -9999.000
 46560,  3.383
 46620,  2.887
 46680,  4.290
 46740,  4.499
 46800, -9999.000
 46860, -9999.000
 46920, -9999.000
 46980, -9999.000
 47040, -9999.000
 47100, -9999.000
 47160, -9999.000
 47220, -9999.000
 47280, -9999.000
 47340, -9999.000
 47400, -9999.000
 47460, -9999.000
 47520, -9999.000
 47580, -9999.000
 47640, -9999.000
 47700, -9999.000
 47760, -9999.000
 47820, -9999.000
 47880, -9999.000
 47940, -9999.000
 48000, -9999.000
 48060, -9999.000
 48120, -9999.000
 48180, -9999.000
 48240, -9999.000
 48300, -9999.000
 48360, -9999.000
 48420, -9999.000
 48480, -9999.000
 48540, -9999.000
 48600, -9999.000
 48660, -9999.000
 48720, -9999.000
 48780, -9999.000
 48840, -9999.000
 48900, -9999.000
 48960, -9999.000
 49020, -9999.000
 49080, -9999.000
 49140, -9999.000
 49200, -9999.000
 49260, -9999.000
 49320, -9999.000
 49380, -9999.000
 49440, -9999.000
 49500, -9999.000
 49560, -9999.000
 49620, -9999.000
 49680, -9999.000
 49740, -9999.000
 49800, -9999.000
 49860, -9999.000
 49920, -9999.000
 49980, -9999.000
 50040, -9999.000
 50100, -9999.000
 50160, -9999.000
 50220, -9999.000
 50280, -9999.000
 50340, -9999.000
 50400, -9999.000
 50460, -9999.000
 50520, -9999.000
 50580, -9999.000
 50640, -9999.000
 50700, -9999.000
 50760, -9999.000
 50820, -9999.000
 50880, -9999.000
 50940, -9999.000
 51000, -9999.000
 51060, -9999.000
 51120, -9999.000
 51180, -9999.000
 51240, -9999.000
 51300, -9999.000
 51360, -9999.000
 51420, -9999.000
 51480, -9999.000
 51540, -9999.000
 51600, -9999.000
 51660, -9999.000
 51720, -9999.000
 51780, -9999.000
 51840, -9999.000
 51900, -9999.000
 51960, -9999.000
 52020, -9999.000
 52080, -9999.000
 52140, -9999.000
 52200, -9999.000
 52260, -9999.000
 52320, -9999.000
 52380, -9999.000
 52440, -9999.000
 52500, -9999.000
 52560, -9999.000
 52620, -9999.000
 52680, -9999.000
 52740, -9999.000
 52800, -9999.000
 52860, -9999.000
 52920, -9999.000
 52980, -9999.000
 53040, -9999.000
 53100, -9999.000
 53160, -9999.000
 53220, -9999.000
 53280, -9999.000
 53340, -9999.000
 53400, -9999.000
 53460, -9999.000
 53520, -9999.000
 53580, -9999.000
 53640, -9999.000
 53700, -9999.000
 53760, -9999.000
 53820, -9999.000
 53880, -9999.000
 53940, -9999.000
 54000, -9999.000
 54060, -9999.000
 54120, -9999.000
 54180, -9999.000
 54240, -9999.000
 54300, -9999.000
 54360, -9999.000
 54420, -9999.000
 54480, -9999.000
 54540, -9999.000
 54600, -9999.000
 54660, -9999.000
 54720, -9999.000
 54780, -9999.000
 54840, -9999.000
 54900, -9999.000
 54960, -9999.000
 55020, -9999.000
 55080, -9999.000
 55140, -9999.000
 55200, -9999.000
 55260, -9999.000
 55320, -9999.000
 55380, -9999.000
 55440, -9999.000
 55500, -9999.000
 55560, -9999.000
 55620, -9999.000
 55680, -9999.000
 55740, -9999.000
 55800, -9999.000
 55860, -9999.000
 55920, -9999.000
 55980, -9999.000
 56040, -9999.000
 56100, -9999.000
 56160, -9999.000
 56220, -9999.000
 56280, -9999.000
 56340, -9999.000
 56400, -9999.000
 56460, -9999.000
 56520, -9999.000
 56580, -9999.000
 56640, -9999.000
 56700, -9999.000
 56760, -9999.000
 56820, -9999.000
 56880, -9999.000
 56940, -9999.000
 57000, -9999.000
 57060, -9999.000
 57120, -9999.000
 57180, -9999.000
 57240, -9999.000
 57300, -9999.000
 57360, -9999.000
 57420, -9999.000
 57480, -9999.000
 57540, -9999.000
 57600, -9999.000
 57660, -9999.000
 57720, -9999.000
 57780, -9999.000
 57840, -9999.000
 57900, -9999.000
 57960, -9999.000
 58020, -9999.000
 58080, -9999.000
 58140, -9999.000
 58200, -9999.000
 58260, -9999.000
 58320, -9999.000
 58380, -9999.000
 58440, -9999.000
 58500, -9999.000
 58560, -9999.000
 58620, -9999.000
 58680, -9999.000
 58740, -9999.000
 58800, -9999.000
 58860, -9999.000
 58920, -9999.000
 58980, -9999.000
 59040, -9999.000
 59100, -9999.000
 59160, -9999.000
 59220, -9999.000
 59280, -9999.000
 59340, -9999.000
 59400, -9999.000
 59460, -9999.000
 59520, -9999.000
 59580, -9999.000
 59640, -9999.000
 59700, -9999.000
 59760, -9999.000
 59820, -9999.000
 59880, -9999.000
 59940, -9999.000
 60000, -9999.000
 60060, -9999.000
 60120, -9999.000
 60180, -9999.000
 60240, -9999.000
 60300, -9999.000
 60360, -9999.000
 60420, -9999.000
 60480, -9999.000
 60540, -9999.000
 60600, -9999.000
 60660, -9999.000
 60720, -9999.000
 60780, -9999.000
 60840, -9999.000
 60900, -9999.000
 60960, -9999.000
 61020, -9999.000
 61080, -9999.000
 61140, -9999.000
 61200, -9999.000
 61260, -9999.000
 61320, -9999.000
 61380, -9999.000
 61440, -9999.000
 61500, -9999.000
 61560, -9999.000
 61620, -9999.000
 61680, -9999.000
 61740, -9999.000
 61800, -9999.000
 61860, -9999.000
 61920, -9999.000
 61980, -9999.000
 62040, -9999.000
 62100, -9999.000
 62160, -9999.000
 62220, -9999.000
 62280, -9999.000
 62340, -9999.000
 62400, -9999.000
 62460, -9999.000
 62520, -9999.000
 62580, -9999.000
 62640, -9999.000
 62700, -9999.000
 62760, -9999.000
 62820, -9999.000
 62880, -9999.000
 62940, -9999.000
 63000, -9999.000
 63060, -9999.000
 63120, -9999.000
 63180, -9999.000
 63240, -9999.000
 63300, -9999.000
 63360, -9999.000
 63420, -9999.000
 63480, -9999.000
 63540, -9999.000
 63600, -9999.000
 63660, -9999.000
 63720, -9999.000
 63780, -9999.000
 63840, -9999.000
 63900, -9999.000
 63960, -9999.000
 64020, -9999.000
 64080, -9999.000
 64140, -9999.000
 64200, -9999.000
 64260, -9999.000
 64320, -9999.000
 64380, -9999.000
 64440, -9999.000
 64500, -9999.000
 64560, -9999.000
 64620, -9999.000
 64680, -9999.000
 64740, -9999.000
 64800, -9999.000
 64860, -9999.000
 64920, -9999.000
 64980, -9999.000
 65040, -9999.000
 65100, -9999.000
 65160, -9999.000
 65220, -9999.000
 65280, -9999.000
 65340, -9999.000
 65400, -9999.000
 65460, -9999.000
 65520, -9999.000
 65580, -9999.000
 65640, -9999.000
 65700, -9999.000
 65760, -9999.000
 65820, -9999.000
 65880, -9999.000
 65940, -9999.000
 66000, -9999.000
 66060, -9999.000
 66120, -9999.000
 66180, -9999.000
 66240, -9999.000
 66300, -9999.000
 66360, -9999.000
 66420, -9999.000
 66480, -9999.000
 66540, -9999.000
 66600, -9999.000
 66660, -9999.000
 66720, -9999.000
 66780, -9999.000
 66840, -9999.000
 66900, -9999.000
 66960, -9999.000
 67020, -9999.000
 67080, -9999.000
 67140, -9999.000
 67200, -9999.000
 67260, -9999.000
 67320, -9999.000
 67380, -9999.000
 67440, -9999.000
 67500, -9999.000
 67560, -9999.000
 67620, -9999.000
 67680, -9999.000
 67740, -9999.000
 67800, -9999.000
 67860, -9999.000
 67920, -9999.000
 67980, -9999.000
 68040, -9999.000
 68100, -9999.000
 68160, -9999.000
 68220, -9999.000
 68280, -9999.000
 68340, -9999.000
 68400, -9999.000
 68460, -9999.000
 68520, -9999.000
 68580, -9999.000
 68640, -9999.000
 68700, -9999.000
 68760, -9999.000
 68820, -9999.000
 68880, -9999.000
 68940, -9999.000
 69000, -9999.000
 69060, -9999.000
 69120, -9999.000
 69180, -9999.000
 69240, -9999.000
 69300, -9999.000
 69360, -9999.000
 69420, -9999.000
 69480, -9999.000
 69540, -9999.000
 69600, -9999.000
 69660, -9999.000
 69720, -9999.000
 69780, -9999.000
 69840, -9999.000
 69900, -9999.000
 69960, -9999.000
 70020, -9999.000
 70080, -9999.000
 70140, -9999.000
 70200, -9999.000
 70260, -9999.000
 70320, -9999.000
 70380, -9999.000
 70440, -9999.000
 70500, -9999.000
 70560, -9999.000
 70620, -9999.000
 70680, -9999.000
 70740, -9999.000
 70800, -9999.000
 70860, -9999.000
 70920, -9999.000
 70980, -9999.000
 71040, -9999.000
 71100, -9999.000
 71160, -9999.000
 71220, -9999.000
 71280, -9999.000
 71340, -9999.000
 71400, -9999.000
 71460, -9999.000
 71520, -9999.000
 71580, -9999.000
 71640, -9999.000
 71700, -9999.000
 71760, -9999.000
 71820, -9999.000
 71880, -9999.000
 71940, -9999.000
 72000, -9999.000
 72060, -9999.000
 72120, -9999.000
 72180, -9999.000
 72240, -9999.000
 72300, -9999.000
 72360, -9999.000
 72420, -9999.000
 72480, -9999.000
 72540, -9999.000
 72600, -9999.000
 72660, -9999.000
 72720, -9999.000
 72780, -9999.000
 72840, -9999.000
 72900, -9999.000
 72960, -9999.000
 73020, -9999.000
 73080, -9999.000
 73140, -9999.000
 73200, -9999.000
 73260, -9999.000
 73320, -9999.000
 73380, -9999.000
 73440, -9999.000
 73500, -9999.000
 73560, -9999.000
 73620, -9999.000
 73680, -9999.000
 73740, -9999.000
 73800, -9999.000
 73860, -9999.000
 73920, -9999.000
 73980, -9999.000
 74040, -9999.000
 74100, -9999.000
 74160, -9999.000
 74220, -9999.000
 74280, -9999.000
 74340, -9999.000
 74400, -9999.000
 74460, -9999.000
 74520, -9999.000
 74580, -9999.000
 74640, -9999.000
 74700, -9999.000
 74760, -9999.000
 74820, -9999.000
 74880, -9999.000
 74940, -9999.000
 75000, -9999.000
 75060, -9999.000
 75120, -9999.000
 75180, -9999.000
 75240, -9999.000
 75300, -9999.000
 75360, -9999.000
 75420, -9999.000
 75480, -9999.000
 75540, -9999.000
 75600, -9999.000
 75660, -9999.000
 75720, -9999.000
 75780, -9999.000
 75840, -9999.000
 75900, -9999.000
 75960, -9999.000
 76020, -9999.000
 76080, -9999.000
 76140, -9999.000
 76200, -9999.000
 76260, -9999.000
 76320, -9999.000
 76380, -9999.000
 76440, -9999.000
 76500, -9999.000
 76560, -9999.000
 76620, -9999.000
 76680, -9999.000
 76740, -9999.000
 76800, -9999.000
 76860, -9999.000
 76920, -9999.000
 76980, -9999.000
 77040, -9999.000
 77100, -9999.000
 77160, -9999.000
 77220, -9999.000
 77280, -9999.000
 77340, -9999.000
 77400, -9999.000
 77460, -9999.000
 77520, -9999.000
 77580, -9999.000
 77640, -9999.000
 77700, -9999.000
 77760, -9999.000
 77820, -9999.000
 77880, -9999.000
 77940, -9999.000
 78000, -9999.000
 78060, -9999.000
 78120, -9999.000
 78180, -9999.000
 78240, -9999.000
 78300, -9999.000
 78360, -9999.000
 78420, -9999.000
 78480, -9999.000
 78540, -9999.000
 78600, -9999.000
 78660, -9999.000
 78720, -9999.000
 78780, -9999.000
 78840, -9999.000
 78900, -9999.000
 78960, -9999.000
 79020, -9999.000
 79080, -9999.000
 79140, -9999.000
 79200, -9999.000
 79260, -9999.000
 79320, -9999.000
 79380, -9999.000
 79440, -9999.000
 79500, -9999.000
 79560, -9999.000
 79620, -9999.000
 79680, -9999.000
 79740, -9999.000
 79800, -9999.000
 79860, -9999.000
 79920, -9999.000
 79980, -9999.000
 80040, -9999.000
 80100, -9999.000
 80160, -9999.000
 80220, -9999.000
 80280, -9999.000
 80340, -9999.000
 80400, -9999.000
 80460, -9999.000
 80520, -9999.000
 80580, -9999.000
 80640, -9999.000
 80700, -9999.000
 80760, -9999.000
 80820, -9999.000
 80880, -9999.000
 80940, -9999.000
 81000, -9999.000
 81060, -9999.000
 81120, -9999.000
 81180, -9999.000
 81240, -9999.000
 81300, -9999.000
 81360, -9999.000
 81420, -9999.000
 81480, -9999.000
 81540, -9999.000
 81600, -9999.000
 81660, -9999.000
 81720, -9999.000
 81780, -9999.000
 81840, -9999.000
 81900, -9999.000
 81960, -9999.000
 82020, -9999.000
 82080, -9999.000
 82140, -9999.000
 82200, -9999.000
 82260, -9999.000
 82320, -9999.000
 82380, -9999.000
 82440, -9999.000
 82500, -9999.000
 82560, -9999.000
 82620, -9999.000
 82680, -9999.000
 82740, -9999.000
 82800, -9999.000
 82860, -9999.000
 82920, -9999.000
 82980, -9999.000
 83040, -9999.000
 83100, -9999.000
 83160, -9999.000
 83220, -9999.000
 83280, -9999.000
 83340, -9999.000
 83400, -9999.000
 83460, -9999.000
 83520, -9999.000
 83580, -9999.000
 83640, -9999.000
 83700, -9999.000
 83760, -9999.000
 83820, -9999.000
 83880, -9999.000
 83940, -9999.000
 84000, -9999.000
 84060, -9999.000
 84120, -9999.000
 84180, -9999.000
 84240, -9999.000
 84300, -9999.000
 84360, -9999.000
 84420, -9999.000
 84480, -9999.000
 84540, -9999.000
 84600, -9999.000
 84660, -9999.000
 84720, -9999.000
 84780, -9999.000
 84840, -9999.000
 84900, -9999.000
 84960, -9999.000
 85020, -9999.000
 85080, -9999.000
 85140, -9999.000
 85200, -9999.000
 85260, -9999.000
 85320, -9999.000
 85380, -9999.000
 85440, -9999.000
 85500, -9999.000
 85560, -9999.000
 85620, -9999.000
 85680, -9999.000
 85740, -9999.000
 85800, -9999.000
 85860, -9999.000
 85920, -9999.000
 85980, -9999.000
 86040, -9999.000
 86100, -9999.000
 86160, -9999.000
 86220, -9999.000
 86280, -9999.000
 86340, -9999.000
