33, 1001
Michael A Robinson, Chris Jernigan, Subi Thakali
NOAA ESRL Chemical Sciences Laboratory and CIRES, U. of Colorado
NOAA Iodide CIMS Instrument
USOS
1, 1
2024, 08, 16, 2024, 08, 18
1
starttime_UTC, seconds_past_midnight, seconds_of_day_since_00:00:00_UTC
1
1
-9999
N2O5_NOAACIMS, pptv, Gas_N2O5_InSitu_S_AVMR, 
0
18
PI_CONTACT_INFO: 325 Broadway, R/CSD 7, Boulder, Colorado 80305; michael.a.robinson@noaa.gov; chris.jernigan@noaa.gov;
PLATFORM: NOAA CSL Mobile Lab
LOCATION: SLC, Utah
ASSOCIATED_DATA: 1Hz data also available on request.
INSTRUMENT_INFO: NOAA I- ToF CIMS
DATA_INFO: All data in parts per trillion by volume (pptv). 1 Hz data is available upon request.
UNCERTAINTY: TBD
ULOD_FLAG: -7777
ULOD_VALUE: N/A
LLOD_FLAG: -8888
LLOD_VALUE: N/A
DM_CONTACT_INFO: Nathan Howard; nathan.h.howard@noaa.gov
PROJECT_INFO: USOS, summer 2024. https://csl.noaa.gov/groups/csl7/measurements/2024usos/
STIPULATIONS_ON_USE: Users are strongly encouraged to contact the PI for proper data usage.
OTHER_COMMENTS: 
REVISION: RA
RA: Preliminary Data; For in-field use only
starttime_UTC, N2O5_NOAACIMS
     0, -9999.000
    60, -9999.000
   120, -9999.000
   180, -9999.000
   240, -9999.000
   300, -9999.000
   360, -9999.000
   420, -9999.000
   480, -9999.000
   540, -9999.000
   600, -9999.000
   660, -9999.000
   720, -9999.000
   780, -9999.000
   840, -9999.000
   900, -9999.000
   960, -9999.000
  1020, -9999.000
  1080, -9999.000
  1140, -9999.000
  1200, -9999.000
  1260, -9999.000
  1320, -9999.000
  1380, -9999.000
  1440, -9999.000
  1500, -9999.000
  1560, -9999.000
  1620, -9999.000
  1680, -9999.000
  1740, -9999.000
  1800, -9999.000
  1860, -9999.000
  1920, -9999.000
  1980, -9999.000
  2040, -9999.000
  2100, -9999.000
  2160, -9999.000
  2220, -9999.000
  2280, -9999.000
  2340, -9999.000
  2400, -9999.000
  2460, -9999.000
  2520, -9999.000
  2580, -9999.000
  2640, -9999.000
  2700, -9999.000
  2760, -9999.000
  2820, -9999.000
  2880, -9999.000
  2940, -9999.000
  3000, -9999.000
  3060, -9999.000
  3120, -9999.000
  3180, -9999.000
  3240, -9999.000
  3300, -9999.000
  3360, -9999.000
  3420, -9999.000
  3480, -9999.000
  3540, -9999.000
  3600, -9999.000
  3660, -9999.000
  3720, -9999.000
  3780, -9999.000
  3840, -9999.000
  3900, -9999.000
  3960, -9999.000
  4020, -9999.000
  4080, -9999.000
  4140, -9999.000
  4200, -9999.000
  4260, -9999.000
  4320, -9999.000
  4380, -9999.000
  4440, -9999.000
  4500, -9999.000
  4560, -9999.000
  4620, -9999.000
  4680, -9999.000
  4740, -9999.000
  4800, -9999.000
  4860, -9999.000
  4920, -9999.000
  4980, -9999.000
  5040, -9999.000
  5100, -9999.000
  5160, -9999.000
  5220, -9999.000
  5280,  0.427
  5340,  0.502
  5400,  0.555
  5460,  0.498
  5520,  0.403
  5580,  0.249
  5640,  0.468
  5700,  0.476
  5760,  0.419
  5820,  0.408
  5880,  0.431
  5940,  0.638
  6000,  0.571
  6060,  0.696
  6120,  0.586
  6180,  0.416
  6240,  0.445
  6300,  0.662
  6360,  0.668
  6420,  0.553
  6480,  0.709
  6540,  0.684
  6600,  0.625
  6660,  0.762
  6720,  0.741
  6780,  0.691
  6840,  0.797
  6900,  0.978
  6960,  0.876
  7020,  1.180
  7080,  1.244
  7140,  1.084
  7200,  1.633
  7260,  1.549
  7320,  1.604
  7380,  1.528
  7440,  1.404
  7500,  0.984
  7560,  1.245
  7620,  1.831
  7680,  1.699
  7740,  1.551
  7800,  1.390
  7860,  1.614
  7920,  1.894
  7980,  1.779
  8040,  1.648
  8100,  1.609
  8160,  1.332
  8220,  1.535
  8280,  2.159
  8340,  2.204
  8400,  2.372
  8460,  3.039
  8520,  3.102
  8580,  1.711
  8640,  2.519
  8700,  2.532
  8760,  3.183
  8820,  4.626
  8880,  4.266
  8940,  5.521
  9000,  4.936
  9060,  4.340
  9120,  5.384
  9180,  4.688
  9240,  1.587
  9300,  1.271
  9360,  4.263
  9420,  2.609
  9480,  3.948
  9540,  3.696
  9600,  4.266
  9660,  5.041
  9720,  4.661
  9780,  6.212
  9840,  6.219
  9900,  5.600
  9960,  2.898
 10020,  3.004
 10080,  3.413
 10140,  3.767
 10200,  3.068
 10260,  4.223
 10320,  4.619
 10380,  3.436
 10440,  3.244
 10500,  2.490
 10560,  3.139
 10620,  2.342
 10680,  3.812
 10740,  3.574
 10800,  4.717
 10860,  4.421
 10920,  5.716
 10980,  5.987
 11040,  7.096
 11100,  5.916
 11160,  4.402
 11220,  3.636
 11280,  3.933
 11340,  3.443
 11400,  3.978
 11460,  3.975
 11520,  4.473
 11580, -9999.000
 11640,  4.286
 11700,  4.236
 11760,  4.291
 11820,  4.976
 11880,  6.198
 11940,  6.016
 12000,  5.770
 12060,  5.887
 12120,  3.941
 12180,  3.049
 12240,  3.808
 12300,  3.170
 12360,  3.159
 12420,  4.423
 12480,  4.001
 12540,  3.185
 12600,  3.943
 12660,  3.741
 12720,  3.272
 12780,  3.765
 12840,  3.059
 12900,  3.862
 12960,  3.968
 13020,  3.933
 13080,  4.410
 13140,  3.891
 13200,  5.714
 13260,  5.854
 13320,  8.710
 13380,  9.293
 13440, -9999.000
 13500, 13.229
 13560, 11.059
 13620,  9.927
 13680, 10.089
 13740, 10.791
 13800,  9.150
 13860,  5.853
 13920,  4.528
 13980,  5.071
 14040,  6.380
 14100,  5.410
 14160,  5.516
 14220,  7.315
 14280,  3.575
 14340,  1.423
 14400,  2.952
 14460,  3.516
 14520,  3.108
 14580,  3.927
 14640,  2.364
 14700,  3.232
 14760,  5.273
 14820,  8.541
 14880,  8.651
 14940,  9.762
 15000, 11.669
 15060, 11.067
 15120,  9.277
 15180,  5.440
 15240,  4.159
 15300, -9999.000
 15360,  1.773
 15420,  2.469
 15480,  3.167
 15540,  3.604
 15600,  3.933
 15660,  2.205
 15720,  3.010
 15780,  4.229
 15840,  4.460
 15900,  4.264
 15960,  3.001
 16020,  1.659
 16080,  2.517
 16140,  2.059
 16200,  2.418
 16260,  3.848
 16320,  3.394
 16380,  2.493
 16440,  3.036
 16500,  3.474
 16560,  3.639
 16620,  2.628
 16680,  2.251
 16740,  3.589
 16800,  3.638
 16860,  4.112
 16920,  4.461
 16980,  4.382
 17040,  4.251
 17100,  3.635
 17160,  5.125
 17220,  4.047
 17280,  4.577
 17340,  4.966
 17400,  5.243
 17460,  5.385
 17520,  5.722
 17580,  4.922
 17640,  5.667
 17700,  7.390
 17760,  8.229
 17820,  5.884
 17880,  1.385
 17940,  2.725
 18000,  3.450
 18060,  3.669
 18120,  5.709
 18180,  4.715
 18240,  3.402
 18300,  2.679
 18360,  2.989
 18420,  2.550
 18480,  3.047
 18540,  2.838
 18600,  3.915
 18660,  4.937
 18720,  3.670
 18780,  4.265
 18840,  6.013
 18900,  8.219
 18960, -9999.000
 19020,  5.921
 19080,  5.516
 19140,  3.112
 19200,  4.974
 19260,  3.140
 19320,  3.628
 19380,  4.989
 19440,  5.839
 19500,  2.559
 19560,  1.917
 19620,  2.096
 19680,  4.180
 19740,  5.612
 19800,  4.870
 19860,  3.060
 19920,  2.931
 19980,  3.972
 20040,  4.240
 20100,  4.251
 20160,  4.603
 20220,  5.019
 20280,  4.692
 20340,  4.399
 20400,  4.744
 20460,  4.446
 20520,  4.652
 20580,  1.950
 20640,  2.904
 20700,  4.041
 20760,  4.141
 20820, -9999.000
 20880,  3.479
 20940,  2.775
 21000,  3.142
 21060,  3.495
 21120,  4.597
 21180,  3.422
 21240,  3.044
 21300,  3.728
 21360,  3.990
 21420,  4.352
 21480,  4.190
 21540,  5.272
 21600,  4.484
 21660,  4.238
 21720,  4.296
 21780,  5.334
 21840,  5.442
 21900,  4.024
 21960,  4.857
 22020,  3.757
 22080,  4.069
 22140,  5.230
 22200,  4.299
 22260,  3.405
 22320,  4.527
 22380,  5.868
 22440,  6.224
 22500,  7.211
 22560,  8.031
 22620,  9.444
 22680, -9999.000
 22740,  7.880
 22800,  9.406
 22860, 10.118
 22920, 10.602
 22980,  9.057
 23040,  9.357
 23100,  9.030
 23160,  8.748
 23220,  7.833
 23280,  8.002
 23340,  6.284
 23400,  5.912
 23460,  5.295
 23520,  5.425
 23580,  6.268
 23640,  6.346
 23700,  7.328
 23760,  7.772
 23820,  7.601
 23880,  6.283
 23940,  6.714
 24000, 10.005
 24060, 23.931
 24120, 20.165
 24180, 18.999
 24240, 21.417
 24300, 17.894
 24360, 14.853
 24420, 15.573
 24480, 17.027
 24540, 26.715
 24600, 17.621
 24660, 16.642
 24720, 23.482
 24780, 35.380
 24840, 27.437
 24900, 28.164
 24960, 28.905
 25020, 27.892
 25080, 27.317
 25140, 22.295
 25200, 20.949
 25260, 21.337
 25320, 26.731
 25380, 24.661
 25440, 32.381
 25500, 37.053
 25560, 41.937
 25620, 40.155
 25680, 41.891
 25740, 22.067
 25800, 18.096
 25860, 30.095
 25920, 34.695
 25980, 42.781
 26040, 32.475
 26100, 38.837
 26160, 31.608
 26220, 17.133
 26280, 31.429
 26340, 44.212
 26400, 19.104
 26460, 41.592
 26520, 32.386
 26580, 14.839
 26640, 19.336
 26700, 28.485
 26760, 41.399
 26820, 32.485
 26880, 44.308
 26940, 48.393
 27000, 39.132
 27060, 16.353
 27120, 20.128
 27180, 13.401
 27240, 12.942
 27300, 24.975
 27360, 35.053
 27420, 15.004
 27480, 13.657
 27540, 10.519
 27600, 15.538
 27660, 12.716
 27720, 22.759
 27780, 34.477
 27840, 34.226
 27900, 27.613
 27960, 29.185
 28020, 20.775
 28080, 26.380
 28140, 12.161
 28200,  8.710
 28260, 18.463
 28320, 12.617
 28380, 17.816
 28440, 23.519
 28500, 23.290
 28560, 21.452
 28620, 21.557
 28680, 19.314
 28740, 12.846
 28800, 15.722
 28860, 18.153
 28920, 19.824
 28980, 22.779
 29040, 16.137
 29100, 16.461
 29160, 16.645
 29220, 11.389
 29280, 14.649
 29340, 14.491
 29400, 15.119
 29460, 13.823
 29520, 11.152
 29580, 17.324
 29640, 15.042
 29700, 11.078
 29760,  7.586
 29820, 16.399
 29880, 15.201
 29940, 10.588
 30000, 11.440
 30060, -9999.000
 30120, 10.755
 30180, 10.430
 30240, 11.862
 30300, 14.401
 30360, 11.054
 30420, 12.636
 30480, 17.222
 30540, 22.062
 30600, 23.902
 30660, 16.324
 30720,  9.367
 30780, 10.752
 30840, 13.552
 30900, 17.021
 30960, 19.040
 31020, 16.063
 31080, 12.049
 31140, 14.245
 31200, 14.231
 31260,  6.795
 31320,  7.165
 31380,  9.859
 31440, 12.010
 31500,  9.487
 31560,  8.790
 31620, 12.984
 31680, 10.230
 31740,  8.805
 31800, 13.393
 31860, 16.195
 31920, 12.288
 31980, 16.504
 32040, 30.142
 32100, 64.375
 32160, 37.654
 32220, 37.445
 32280, 26.655
 32340, 19.701
 32400, 16.634
 32460, 18.326
 32520,  9.883
 32580, 13.736
 32640, 13.729
 32700, 16.216
 32760,  9.415
 32820,  9.086
 32880, 11.382
 32940, 14.445
 33000, 15.240
 33060, 12.582
 33120, 13.426
 33180, 20.685
 33240, 20.077
 33300, 16.928
 33360, 15.892
 33420, 17.035
 33480, 14.715
 33540, 17.952
 33600, 11.363
 33660, 12.893
 33720, 11.697
 33780, -9999.000
 33840, 10.002
 33900, 11.726
 33960, 13.641
 34020, 13.001
 34080, 13.093
 34140, 11.783
 34200, 10.245
 34260,  8.751
 34320,  9.833
 34380, 10.723
 34440, 14.145
 34500, 15.739
 34560, 15.662
 34620, 14.571
 34680, 13.373
 34740, 14.355
 34800, 12.426
 34860, 14.431
 34920, 12.464
 34980, 16.107
 35040, 13.911
 35100, 14.425
 35160, 14.131
 35220,  9.670
 35280,  8.079
 35340, 12.413
 35400, 16.035
 35460, 13.386
 35520, 12.767
 35580, 12.761
 35640, 14.084
 35700, 15.367
 35760, 20.548
 35820, 16.038
 35880, 14.659
 35940,  6.147
 36000,  5.552
 36060,  7.656
 36120, 10.031
 36180, 15.570
 36240, 15.696
 36300, 13.272
 36360, 10.829
 36420, 13.406
 36480, 11.913
 36540, 18.742
 36600, 20.113
 36660, 16.854
 36720, 19.026
 36780, 20.366
 36840, 20.698
 36900, 24.337
 36960, 20.919
 37020, 21.376
 37080, 20.855
 37140, 24.461
 37200, 20.367
 37260, 19.455
 37320, 25.042
 37380, 27.316
 37440, -9999.000
 37500, 31.730
 37560, 31.684
 37620, 29.726
 37680, 33.117
 37740, 39.376
 37800, 29.290
 37860, 30.127
 37920, 23.491
 37980, 19.543
 38040, 22.055
 38100, 20.788
 38160, 21.569
 38220, 16.651
 38280, 15.707
 38340, 14.533
 38400, 23.225
 38460, 19.141
 38520, 19.371
 38580, 16.402
 38640, 16.914
 38700, 16.976
 38760, 17.847
 38820, 17.293
 38880, 17.115
 38940, 18.906
 39000, 14.206
 39060, 15.884
 39120, 16.448
 39180, 16.876
 39240, 17.386
 39300, -9999.000
 39360, 17.975
 39420, 17.250
 39480, 19.677
 39540, 18.690
 39600, 23.455
 39660, 22.691
 39720, 19.986
 39780, 19.263
 39840, 22.199
 39900, 22.475
 39960, 19.730
 40020, 19.301
 40080, 18.723
 40140, 25.951
 40200, 24.604
 40260, 22.007
 40320, 22.073
 40380, 23.150
 40440, 20.397
 40500, 19.633
 40560, 16.955
 40620, 16.794
 40680, 17.808
 40740, 20.920
 40800, 20.682
 40860, 20.128
 40920, 16.813
 40980, 21.082
 41040, 23.991
 41100, 19.483
 41160, -9999.000
 41220, 19.303
 41280, 19.640
 41340, 18.690
 41400, 16.882
 41460, 15.932
 41520, 14.370
 41580, 15.649
 41640, 16.425
 41700, 16.849
 41760, 17.036
 41820, 20.904
 41880, 20.689
 41940, 24.230
 42000, 22.698
 42060, 20.372
 42120, 19.731
 42180, 17.253
 42240, 16.618
 42300, 12.275
 42360, 14.022
 42420, 16.076
 42480, 14.624
 42540, 13.007
 42600, 12.353
 42660, 10.791
 42720, 10.790
 42780, 11.040
 42840, 12.005
 42900, 14.727
 42960,  8.833
 43020,  6.639
 43080,  7.561
 43140,  9.775
 43200, 10.632
 43260,  8.120
 43320, 14.104
 43380, 16.828
 43440, 10.797
 43500,  4.756
 43560,  6.027
 43620,  6.679
 43680,  5.654
 43740,  4.912
 43800,  5.974
 43860,  7.533
 43920,  6.974
 43980,  7.422
 44040,  9.497
 44100,  9.199
 44160,  7.621
 44220,  6.692
 44280,  7.374
 44340,  6.704
 44400,  9.543
 44460,  7.276
 44520,  7.574
 44580,  9.280
 44640,  7.682
 44700,  8.360
 44760,  8.519
 44820, -9999.000
 44880,  7.442
 44940,  7.198
 45000,  7.064
 45060,  7.611
 45120,  6.814
 45180,  7.218
 45240,  7.993
 45300,  9.714
 45360, 11.297
 45420, 11.504
 45480,  8.928
 45540,  8.124
 45600,  8.079
 45660, 10.872
 45720,  9.617
 45780,  8.512
 45840,  7.251
 45900,  6.747
 45960,  8.627
 46020,  8.016
 46080,  8.412
 46140,  9.397
 46200,  9.809
 46260,  9.155
 46320, 10.887
 46380, 10.232
 46440,  9.971
 46500, 10.478
 46560, 10.926
 46620, 11.361
 46680, -9999.000
 46740, 10.351
 46800, -9999.000
 46860, -9999.000
 46920, -9999.000
 46980, -9999.000
 47040, -9999.000
 47100, -9999.000
 47160, -9999.000
 47220, -9999.000
 47280, -9999.000
 47340, -9999.000
 47400, -9999.000
 47460, -9999.000
 47520, -9999.000
 47580, -9999.000
 47640, -9999.000
 47700, -9999.000
 47760, -9999.000
 47820, -9999.000
 47880, -9999.000
 47940, -9999.000
 48000, -9999.000
 48060, -9999.000
 48120, -9999.000
 48180, -9999.000
 48240, -9999.000
 48300, -9999.000
 48360, -9999.000
 48420, -9999.000
 48480, -9999.000
 48540, -9999.000
 48600, -9999.000
 48660, -9999.000
 48720, -9999.000
 48780, -9999.000
 48840, -9999.000
 48900, -9999.000
 48960, -9999.000
 49020, -9999.000
 49080, -9999.000
 49140, -9999.000
 49200, -9999.000
 49260, -9999.000
 49320, -9999.000
 49380, -9999.000
 49440, -9999.000
 49500, -9999.000
 49560, -9999.000
 49620, -9999.000
 49680, -9999.000
 49740, -9999.000
 49800, -9999.000
 49860, -9999.000
 49920, -9999.000
 49980, -9999.000
 50040, -9999.000
 50100, -9999.000
 50160, -9999.000
 50220, -9999.000
 50280, -9999.000
 50340, -9999.000
 50400, -9999.000
 50460, -9999.000
 50520, -9999.000
 50580, -9999.000
 50640, -9999.000
 50700, -9999.000
 50760, -9999.000
 50820, -9999.000
 50880, -9999.000
 50940, -9999.000
 51000, -9999.000
 51060, -9999.000
 51120, -9999.000
 51180, -9999.000
 51240, -9999.000
 51300, -9999.000
 51360, -9999.000
 51420, -9999.000
 51480, -9999.000
 51540, -9999.000
 51600, -9999.000
 51660, -9999.000
 51720, -9999.000
 51780, -9999.000
 51840, -9999.000
 51900, -9999.000
 51960, -9999.000
 52020, -9999.000
 52080, -9999.000
 52140, -9999.000
 52200, -9999.000
 52260, -9999.000
 52320, -9999.000
 52380, -9999.000
 52440, -9999.000
 52500, -9999.000
 52560, -9999.000
 52620, -9999.000
 52680, -9999.000
 52740, -9999.000
 52800, -9999.000
 52860, -9999.000
 52920, -9999.000
 52980, -9999.000
 53040, -9999.000
 53100, -9999.000
 53160, -9999.000
 53220, -9999.000
 53280, -9999.000
 53340, -9999.000
 53400, -9999.000
 53460, -9999.000
 53520, -9999.000
 53580, -9999.000
 53640, -9999.000
 53700, -9999.000
 53760, -9999.000
 53820, -9999.000
 53880, -9999.000
 53940, -9999.000
 54000, -9999.000
 54060, -9999.000
 54120, -9999.000
 54180, -9999.000
 54240, -9999.000
 54300, -9999.000
 54360, -9999.000
 54420, -9999.000
 54480, -9999.000
 54540, -9999.000
 54600, -9999.000
 54660, -9999.000
 54720, -9999.000
 54780, -9999.000
 54840, -9999.000
 54900, -9999.000
 54960, -9999.000
 55020, -9999.000
 55080, -9999.000
 55140, -9999.000
 55200, -9999.000
 55260, -9999.000
 55320, -9999.000
 55380, -9999.000
 55440, -9999.000
 55500, -9999.000
 55560, -9999.000
 55620, -9999.000
 55680, -9999.000
 55740, -9999.000
 55800, -9999.000
 55860, -9999.000
 55920, -9999.000
 55980, -9999.000
 56040, -9999.000
 56100, -9999.000
 56160, -9999.000
 56220, -9999.000
 56280, -9999.000
 56340, -9999.000
 56400, -9999.000
 56460, -9999.000
 56520, -9999.000
 56580, -9999.000
 56640, -9999.000
 56700, -9999.000
 56760, -9999.000
 56820, -9999.000
 56880, -9999.000
 56940, -9999.000
 57000, -9999.000
 57060, -9999.000
 57120, -9999.000
 57180, -9999.000
 57240, -9999.000
 57300, -9999.000
 57360, -9999.000
 57420, -9999.000
 57480, -9999.000
 57540, -9999.000
 57600, -9999.000
 57660, -9999.000
 57720, -9999.000
 57780, -9999.000
 57840, -9999.000
 57900, -9999.000
 57960, -9999.000
 58020, -9999.000
 58080, -9999.000
 58140, -9999.000
 58200, -9999.000
 58260, -9999.000
 58320, -9999.000
 58380, -9999.000
 58440, -9999.000
 58500, -9999.000
 58560, -9999.000
 58620, -9999.000
 58680, -9999.000
 58740, -9999.000
 58800, -9999.000
 58860, -9999.000
 58920, -9999.000
 58980, -9999.000
 59040, -9999.000
 59100, -9999.000
 59160, -9999.000
 59220, -9999.000
 59280, -9999.000
 59340, -9999.000
 59400, -9999.000
 59460, -9999.000
 59520, -9999.000
 59580, -9999.000
 59640, -9999.000
 59700, -9999.000
 59760, -9999.000
 59820, -9999.000
 59880, -9999.000
 59940, -9999.000
 60000, -9999.000
 60060, -9999.000
 60120, -9999.000
 60180, -9999.000
 60240, -9999.000
 60300, -9999.000
 60360, -9999.000
 60420, -9999.000
 60480, -9999.000
 60540, -9999.000
 60600, -9999.000
 60660, -9999.000
 60720, -9999.000
 60780, -9999.000
 60840, -9999.000
 60900, -9999.000
 60960, -9999.000
 61020, -9999.000
 61080, -9999.000
 61140, -9999.000
 61200, -9999.000
 61260, -9999.000
 61320, -9999.000
 61380, -9999.000
 61440, -9999.000
 61500, -9999.000
 61560, -9999.000
 61620, -9999.000
 61680, -9999.000
 61740, -9999.000
 61800, -9999.000
 61860, -9999.000
 61920, -9999.000
 61980, -9999.000
 62040, -9999.000
 62100, -9999.000
 62160, -9999.000
 62220, -9999.000
 62280, -9999.000
 62340, -9999.000
 62400, -9999.000
 62460, -9999.000
 62520, -9999.000
 62580, -9999.000
 62640, -9999.000
 62700, -9999.000
 62760, -9999.000
 62820, -9999.000
 62880, -9999.000
 62940, -9999.000
 63000, -9999.000
 63060, -9999.000
 63120, -9999.000
 63180, -9999.000
 63240, -9999.000
 63300, -9999.000
 63360, -9999.000
 63420, -9999.000
 63480, -9999.000
 63540, -9999.000
 63600, -9999.000
 63660, -9999.000
 63720, -9999.000
 63780, -9999.000
 63840, -9999.000
 63900, -9999.000
 63960, -9999.000
 64020, -9999.000
 64080, -9999.000
 64140, -9999.000
 64200, -9999.000
 64260, -9999.000
 64320, -9999.000
 64380, -9999.000
 64440, -9999.000
 64500, -9999.000
 64560, -9999.000
 64620, -9999.000
 64680, -9999.000
 64740, -9999.000
 64800, -9999.000
 64860, -9999.000
 64920, -9999.000
 64980, -9999.000
 65040, -9999.000
 65100, -9999.000
 65160, -9999.000
 65220, -9999.000
 65280, -9999.000
 65340, -9999.000
 65400, -9999.000
 65460, -9999.000
 65520, -9999.000
 65580, -9999.000
 65640, -9999.000
 65700, -9999.000
 65760, -9999.000
 65820, -9999.000
 65880, -9999.000
 65940, -9999.000
 66000, -9999.000
 66060, -9999.000
 66120, -9999.000
 66180, -9999.000
 66240, -9999.000
 66300, -9999.000
 66360, -9999.000
 66420, -9999.000
 66480, -9999.000
 66540, -9999.000
 66600, -9999.000
 66660, -9999.000
 66720, -9999.000
 66780, -9999.000
 66840, -9999.000
 66900, -9999.000
 66960, -9999.000
 67020, -9999.000
 67080, -9999.000
 67140, -9999.000
 67200, -9999.000
 67260, -9999.000
 67320, -9999.000
 67380, -9999.000
 67440, -9999.000
 67500, -9999.000
 67560, -9999.000
 67620, -9999.000
 67680, -9999.000
 67740, -9999.000
 67800, -9999.000
 67860, -9999.000
 67920, -9999.000
 67980, -9999.000
 68040, -9999.000
 68100, -9999.000
 68160, -9999.000
 68220, -9999.000
 68280, -9999.000
 68340, -9999.000
 68400, -9999.000
 68460, -9999.000
 68520, -9999.000
 68580, -9999.000
 68640, -9999.000
 68700, -9999.000
 68760, -9999.000
 68820, -9999.000
 68880, -9999.000
 68940, -9999.000
 69000, -9999.000
 69060, -9999.000
 69120, -9999.000
 69180, -9999.000
 69240, -9999.000
 69300, -9999.000
 69360, -9999.000
 69420, -9999.000
 69480, -9999.000
 69540, -9999.000
 69600, -9999.000
 69660, -9999.000
 69720, -9999.000
 69780, -9999.000
 69840, -9999.000
 69900, -9999.000
 69960, -9999.000
 70020, -9999.000
 70080, -9999.000
 70140, -9999.000
 70200, -9999.000
 70260, -9999.000
 70320, -9999.000
 70380, -9999.000
 70440, -9999.000
 70500, -9999.000
 70560, -9999.000
 70620, -9999.000
 70680, -9999.000
 70740, -9999.000
 70800, -9999.000
 70860, -9999.000
 70920, -9999.000
 70980, -9999.000
 71040, -9999.000
 71100, -9999.000
 71160, -9999.000
 71220, -9999.000
 71280, -9999.000
 71340, -9999.000
 71400, -9999.000
 71460, -9999.000
 71520, -9999.000
 71580, -9999.000
 71640, -9999.000
 71700, -9999.000
 71760, -9999.000
 71820, -9999.000
 71880, -9999.000
 71940, -9999.000
 72000, -9999.000
 72060, -9999.000
 72120, -9999.000
 72180, -9999.000
 72240, -9999.000
 72300, -9999.000
 72360, -9999.000
 72420, -9999.000
 72480, -9999.000
 72540, -9999.000
 72600, -9999.000
 72660, -9999.000
 72720, -9999.000
 72780, -9999.000
 72840, -9999.000
 72900, -9999.000
 72960, -9999.000
 73020, -9999.000
 73080, -9999.000
 73140, -9999.000
 73200, -9999.000
 73260, -9999.000
 73320, -9999.000
 73380, -9999.000
 73440, -9999.000
 73500, -9999.000
 73560, -9999.000
 73620, -9999.000
 73680, -9999.000
 73740, -9999.000
 73800, -9999.000
 73860, -9999.000
 73920, -9999.000
 73980, -9999.000
 74040, -9999.000
 74100, -9999.000
 74160, -9999.000
 74220, -9999.000
 74280, -9999.000
 74340, -9999.000
 74400, -9999.000
 74460, -9999.000
 74520, -9999.000
 74580, -9999.000
 74640, -9999.000
 74700, -9999.000
 74760, -9999.000
 74820, -9999.000
 74880, -9999.000
 74940, -9999.000
 75000, -9999.000
 75060, -9999.000
 75120, -9999.000
 75180, -9999.000
 75240, -9999.000
 75300, -9999.000
 75360, -9999.000
 75420, -9999.000
 75480, -9999.000
 75540, -9999.000
 75600, -9999.000
 75660, -9999.000
 75720, -9999.000
 75780, -9999.000
 75840, -9999.000
 75900, -9999.000
 75960, -9999.000
 76020, -9999.000
 76080, -9999.000
 76140, -9999.000
 76200, -9999.000
 76260, -9999.000
 76320, -9999.000
 76380, -9999.000
 76440, -9999.000
 76500, -9999.000
 76560, -9999.000
 76620, -9999.000
 76680, -9999.000
 76740, -9999.000
 76800, -9999.000
 76860, -9999.000
 76920, -9999.000
 76980, -9999.000
 77040, -9999.000
 77100, -9999.000
 77160, -9999.000
 77220, -9999.000
 77280, -9999.000
 77340, -9999.000
 77400, -9999.000
 77460, -9999.000
 77520, -9999.000
 77580, -9999.000
 77640, -9999.000
 77700, -9999.000
 77760, -9999.000
 77820, -9999.000
 77880, -9999.000
 77940, -9999.000
 78000, -9999.000
 78060, -9999.000
 78120, -9999.000
 78180, -9999.000
 78240, -9999.000
 78300, -9999.000
 78360, -9999.000
 78420, -9999.000
 78480, -9999.000
 78540, -9999.000
 78600, -9999.000
 78660, -9999.000
 78720, -9999.000
 78780, -9999.000
 78840, -9999.000
 78900, -9999.000
 78960, -9999.000
 79020, -9999.000
 79080, -9999.000
 79140, -9999.000
 79200, -9999.000
 79260, -9999.000
 79320, -9999.000
 79380, -9999.000
 79440, -9999.000
 79500, -9999.000
 79560, -9999.000
 79620, -9999.000
 79680, -9999.000
 79740, -9999.000
 79800, -9999.000
 79860, -9999.000
 79920, -9999.000
 79980, -9999.000
 80040, -9999.000
 80100, -9999.000
 80160, -9999.000
 80220, -9999.000
 80280, -9999.000
 80340, -9999.000
 80400, -9999.000
 80460, -9999.000
 80520, -9999.000
 80580, -9999.000
 80640, -9999.000
 80700, -9999.000
 80760, -9999.000
 80820, -9999.000
 80880, -9999.000
 80940, -9999.000
 81000, -9999.000
 81060, -9999.000
 81120, -9999.000
 81180, -9999.000
 81240, -9999.000
 81300, -9999.000
 81360, -9999.000
 81420, -9999.000
 81480, -9999.000
 81540, -9999.000
 81600, -9999.000
 81660, -9999.000
 81720, -9999.000
 81780, -9999.000
 81840, -9999.000
 81900, -9999.000
 81960, -9999.000
 82020, -9999.000
 82080, -9999.000
 82140, -9999.000
 82200, -9999.000
 82260, -9999.000
 82320, -9999.000
 82380, -9999.000
 82440, -9999.000
 82500, -9999.000
 82560, -9999.000
 82620, -9999.000
 82680, -9999.000
 82740, -9999.000
 82800, -9999.000
 82860, -9999.000
 82920, -9999.000
 82980, -9999.000
 83040, -9999.000
 83100, -9999.000
 83160, -9999.000
 83220, -9999.000
 83280, -9999.000
 83340, -9999.000
 83400, -9999.000
 83460, -9999.000
 83520, -9999.000
 83580, -9999.000
 83640, -9999.000
 83700, -9999.000
 83760, -9999.000
 83820, -9999.000
 83880, -9999.000
 83940, -9999.000
 84000, -9999.000
 84060, -9999.000
 84120, -9999.000
 84180, -9999.000
 84240, -9999.000
 84300, -9999.000
 84360, -9999.000
 84420, -9999.000
 84480, -9999.000
 84540, -9999.000
 84600, -9999.000
 84660, -9999.000
 84720, -9999.000
 84780, -9999.000
 84840, -9999.000
 84900, -9999.000
 84960, -9999.000
 85020, -9999.000
 85080, -9999.000
 85140, -9999.000
 85200, -9999.000
 85260, -9999.000
 85320, -9999.000
 85380, -9999.000
 85440, -9999.000
 85500, -9999.000
 85560, -9999.000
 85620, -9999.000
 85680, -9999.000
 85740, -9999.000
 85800, -9999.000
 85860, -9999.000
 85920, -9999.000
 85980, -9999.000
 86040, -9999.000
 86100, -9999.000
 86160, -9999.000
 86220, -9999.000
 86280, -9999.000
 86340, -9999.000
