33, 1001
Michael A Robinson, Chris Jernigan, Subi Thakali
NOAA ESRL Chemical Sciences Laboratory and CIRES, U. of Colorado
NOAA Iodide CIMS Instrument
USOS
1, 1
2024, 08, 16, 2024, 08, 18
1
starttime_UTC, seconds_past_midnight, seconds_of_day_since_00:00:00_UTC
1
1
-9999
HNO2_NOAACIMS, pptv, Gas_HNO2_InSitu_S_AVMR, 
0
18
PI_CONTACT_INFO: 325 Broadway, R/CSD 7, Boulder, Colorado 80305; michael.a.robinson@noaa.gov; chris.jernigan@noaa.gov;
PLATFORM: NOAA CSL Mobile Lab
LOCATION: SLC, Utah
ASSOCIATED_DATA: 1Hz data also available on request.
INSTRUMENT_INFO: NOAA I- ToF CIMS
DATA_INFO: All data in parts per trillion by volume (pptv). 1 Hz data is available upon request.
UNCERTAINTY: TBD
ULOD_FLAG: -7777
ULOD_VALUE: N/A
LLOD_FLAG: -8888
LLOD_VALUE: N/A
DM_CONTACT_INFO: Nathan Howard; nathan.h.howard@noaa.gov
PROJECT_INFO: USOS, summer 2024. https://csl.noaa.gov/groups/csl7/measurements/2024usos/
STIPULATIONS_ON_USE: Users are strongly encouraged to contact the PI for proper data usage.
OTHER_COMMENTS: 
REVISION: RA
RA: Preliminary Data; For in-field use only
starttime_UTC, HNO2_NOAACIMS
     0, 57.710
    60, 64.241
   120, 202.444
   180, 168.808
   240, 55.380
   300, 62.254
   360, 55.384
   420, 50.884
   480, -9999.000
   540, 42.222
   600, 49.292
   660, 51.496
   720, 53.465
   780, 51.443
   840, 57.541
   900, 53.103
   960, 55.363
  1020, 39.943
  1080, 38.143
  1140, 42.320
  1200, 58.944
  1260, 46.434
  1320, 58.586
  1380, 53.875
  1440, 54.106
  1500, 68.448
  1560, 59.988
  1620, 49.094
  1680, 40.166
  1740, 38.178
  1800, 34.714
  1860, 34.323
  1920, 47.557
  1980, 57.432
  2040, 84.700
  2100, 47.698
  2160, 31.686
  2220, 34.527
  2280, 27.765
  2340, 49.274
  2400, 49.526
  2460, 50.580
  2520, 61.366
  2580, 65.328
  2640, 59.300
  2700, 52.536
  2760, 56.902
  2820, 62.989
  2880, 54.099
  2940, 58.694
  3000, 95.593
  3060, 50.496
  3120, 60.527
  3180, 58.192
  3240, 58.834
  3300, 63.303
  3360, 67.451
  3420, 68.558
  3480, 86.463
  3540, 54.717
  3600, 42.100
  3660, 40.968
  3720, 42.888
  3780, 65.912
  3840, 45.235
  3900, 59.992
  3960, 52.529
  4020, 58.985
  4080, 50.760
  4140, 70.817
  4200, -9999.000
  4260, 81.512
  4320, 73.228
  4380, 82.218
  4440, 86.266
  4500, 90.780
  4560, 87.553
  4620, 86.866
  4680, 92.839
  4740, 68.414
  4800, 69.184
  4860, 71.718
  4920, 63.792
  4980, 76.679
  5040, 80.847
  5100, 95.910
  5160, 92.894
  5220, 87.461
  5280, 112.335
  5340, 98.849
  5400, 104.101
  5460, 72.563
  5520, 66.458
  5580, 86.693
  5640, 85.278
  5700, 93.497
  5760, 95.481
  5820, 90.417
  5880, 75.859
  5940, 110.398
  6000, 133.176
  6060, 101.259
  6120, 127.528
  6180, 111.503
  6240, 98.787
  6300, 196.606
  6360, 143.622
  6420, 114.511
  6480, 107.341
  6540, 127.597
  6600, 120.110
  6660, 83.876
  6720, 101.538
  6780, 99.349
  6840, 111.534
  6900, 102.883
  6960, 114.973
  7020, 126.768
  7080, 170.946
  7140, 135.333
  7200, 122.684
  7260, 125.439
  7320, 151.819
  7380, 156.719
  7440, 143.945
  7500, 221.553
  7560, 205.165
  7620, 177.151
  7680, 154.163
  7740, 175.898
  7800, 200.371
  7860, 202.901
  7920, 278.725
  7980, 254.378
  8040, 228.249
  8100, 210.395
  8160, 245.359
  8220, 190.722
  8280, 238.915
  8340, 211.608
  8400, 200.635
  8460, 223.279
  8520, 229.173
  8580, 264.136
  8640, 253.393
  8700, 280.775
  8760, 263.934
  8820, 261.830
  8880, 272.323
  8940, 268.002
  9000, 292.833
  9060, 247.106
  9120, 242.043
  9180, 302.498
  9240, 361.849
  9300, 316.914
  9360, 297.515
  9420, 364.294
  9480, 353.556
  9540, 377.938
  9600, 348.810
  9660, 388.168
  9720, 335.279
  9780, 330.818
  9840, 342.209
  9900, 359.164
  9960, 427.846
 10020, 409.744
 10080, 437.253
 10140, 395.495
 10200, 403.158
 10260, 437.181
 10320, 473.363
 10380, 387.767
 10440, 498.953
 10500, 476.191
 10560, 450.466
 10620, 519.937
 10680, 482.688
 10740, 518.489
 10800, 506.014
 10860, 491.104
 10920, 463.570
 10980, 472.912
 11040, 394.943
 11100, 349.406
 11160, 333.115
 11220, 337.894
 11280, 342.115
 11340, 339.321
 11400, 333.404
 11460, 345.779
 11520, 349.023
 11580, -9999.000
 11640, 307.350
 11700, 257.422
 11760, 260.724
 11820, 276.974
 11880, 272.768
 11940, 233.938
 12000, 237.365
 12060, 263.813
 12120, 250.843
 12180, 233.975
 12240, 204.527
 12300, 210.163
 12360, 212.170
 12420, 233.445
 12480, 178.697
 12540, 212.327
 12600, 186.559
 12660, 188.059
 12720, 187.421
 12780, 176.255
 12840, 182.028
 12900, 174.119
 12960, 170.470
 13020, 156.272
 13080, 186.219
 13140, 153.431
 13200, 173.488
 13260, 196.046
 13320, 262.112
 13380, 293.711
 13440, -9999.000
 13500, 226.376
 13560, 224.305
 13620, 188.822
 13680, 155.139
 13740, 128.630
 13800, 135.424
 13860, 165.125
 13920, 173.098
 13980, 146.892
 14040, 213.180
 14100, 261.289
 14160, 297.276
 14220, 323.216
 14280, 382.539
 14340, 410.133
 14400, 257.257
 14460, 260.623
 14520, 285.313
 14580, 281.177
 14640, 341.902
 14700, 335.506
 14760, 291.769
 14820, 257.302
 14880, 270.793
 14940, 280.748
 15000, 296.698
 15060, 320.404
 15120, 314.859
 15180, 270.120
 15240, 296.950
 15300, -9999.000
 15360, 294.027
 15420, 299.702
 15480, 301.652
 15540, 241.523
 15600, 271.995
 15660, 285.825
 15720, 286.275
 15780, 255.271
 15840, 248.553
 15900, 212.634
 15960, 184.906
 16020, 200.600
 16080, 241.843
 16140, 242.665
 16200, 269.436
 16260, 238.574
 16320, 232.207
 16380, 257.775
 16440, 201.020
 16500, 181.667
 16560, 172.107
 16620, 190.892
 16680, 203.936
 16740, 199.485
 16800, 183.784
 16860, 174.023
 16920, 187.016
 16980, 186.248
 17040, 193.013
 17100, 191.273
 17160, 188.418
 17220, 201.582
 17280, 202.221
 17340, 201.635
 17400, 195.277
 17460, 178.273
 17520, 169.774
 17580, 170.349
 17640, 187.382
 17700, 193.110
 17760, 201.428
 17820, 219.869
 17880, 255.813
 17940, 289.058
 18000, 283.124
 18060, 284.300
 18120, 266.813
 18180, 244.472
 18240, 304.168
 18300, 282.851
 18360, 282.576
 18420, 277.633
 18480, 282.962
 18540, 287.991
 18600, 232.839
 18660, 235.834
 18720, 221.849
 18780, 191.710
 18840, 208.049
 18900, 196.156
 18960, -9999.000
 19020, 191.660
 19080, 209.619
 19140, 208.420
 19200, 174.103
 19260, 207.252
 19320, 166.438
 19380, 151.512
 19440, 164.964
 19500, 161.577
 19560, 178.794
 19620, 212.473
 19680, 176.961
 19740, 148.564
 19800, 148.874
 19860, 177.512
 19920, 167.727
 19980, 155.960
 20040, 155.589
 20100, 161.107
 20160, 152.547
 20220, 150.782
 20280, 166.638
 20340, 149.747
 20400, 158.039
 20460, 166.466
 20520, 176.320
 20580, 191.216
 20640, 178.134
 20700, 150.392
 20760, 143.836
 20820, -9999.000
 20880, 219.886
 20940, 197.000
 21000, 164.309
 21060, 165.790
 21120, 153.607
 21180, 146.903
 21240, 142.869
 21300, 148.482
 21360, 192.676
 21420, 155.131
 21480, 152.025
 21540, 155.932
 21600, 164.367
 21660, 175.756
 21720, 162.363
 21780, 144.376
 21840, 133.824
 21900, 147.465
 21960, 146.702
 22020, 161.254
 22080, 181.864
 22140, 164.146
 22200, 147.349
 22260, 175.964
 22320, 169.647
 22380, 173.489
 22440, 171.893
 22500, 190.643
 22560, 165.020
 22620, 143.724
 22680, -9999.000
 22740, 195.227
 22800, 185.235
 22860, 212.895
 22920, 221.018
 22980, 214.839
 23040, 230.980
 23100, 225.743
 23160, 271.271
 23220, 283.141
 23280, 272.338
 23340, 283.548
 23400, 292.440
 23460, 259.073
 23520, 287.584
 23580, 288.114
 23640, 226.639
 23700, 235.697
 23760, 254.694
 23820, 268.353
 23880, 258.701
 23940, 233.310
 24000, 223.221
 24060, 219.347
 24120, 229.260
 24180, 244.226
 24240, 237.359
 24300, 229.249
 24360, 248.100
 24420, 253.766
 24480, 238.058
 24540, 209.421
 24600, 218.836
 24660, 233.487
 24720, 230.845
 24780, 185.699
 24840, 200.409
 24900, 176.311
 24960, 176.723
 25020, 192.522
 25080, 151.238
 25140, 158.200
 25200, 167.346
 25260, 155.447
 25320, 129.358
 25380, 145.186
 25440, 128.015
 25500, 91.418
 25560, 100.781
 25620, 107.923
 25680, 113.419
 25740, 123.180
 25800, 123.804
 25860, 118.279
 25920, 111.480
 25980, 117.511
 26040, 125.126
 26100, 111.582
 26160, 127.576
 26220, 163.480
 26280, 131.856
 26340, 123.932
 26400, 231.237
 26460, 115.098
 26520, 135.181
 26580, 185.907
 26640, 180.613
 26700, 163.154
 26760, 135.911
 26820, 151.551
 26880, 132.340
 26940, 122.658
 27000, 139.297
 27060, 175.738
 27120, 163.119
 27180, 191.799
 27240, 186.839
 27300, 179.757
 27360, 169.738
 27420, 168.963
 27480, 222.101
 27540, 264.404
 27600, 219.378
 27660, 207.655
 27720, 180.540
 27780, 162.073
 27840, 162.833
 27900, 184.699
 27960, 188.323
 28020, 213.019
 28080, 183.940
 28140, 239.081
 28200, 248.140
 28260, 205.848
 28320, 223.950
 28380, 206.166
 28440, 192.549
 28500, 199.167
 28560, 219.608
 28620, 205.608
 28680, 227.165
 28740, 299.133
 28800, 267.837
 28860, 240.053
 28920, 240.019
 28980, 231.419
 29040, 256.604
 29100, 263.942
 29160, 250.802
 29220, 271.295
 29280, 267.305
 29340, 270.954
 29400, 266.499
 29460, 282.157
 29520, 292.988
 29580, 265.776
 29640, 305.734
 29700, 278.372
 29760, 277.608
 29820, 277.763
 29880, 268.074
 29940, 284.235
 30000, 281.992
 30060, -9999.000
 30120, 289.797
 30180, 262.494
 30240, 259.635
 30300, 255.998
 30360, 284.927
 30420, 279.606
 30480, 254.815
 30540, 238.681
 30600, 214.335
 30660, 258.058
 30720, 302.840
 30780, 264.966
 30840, 253.885
 30900, 248.860
 30960, 224.238
 31020, 235.494
 31080, 240.749
 31140, 245.417
 31200, 236.012
 31260, 239.013
 31320, 230.977
 31380, 259.494
 31440, 257.526
 31500, 233.899
 31560, 230.733
 31620, 225.790
 31680, 245.127
 31740, 253.589
 31800, 240.964
 31860, 243.884
 31920, 261.139
 31980, 196.699
 32040, 155.067
 32100, 150.267
 32160, 185.336
 32220, 143.194
 32280, 167.367
 32340, 193.582
 32400, 189.811
 32460, 180.819
 32520, 220.733
 32580, 195.611
 32640, 197.710
 32700, 204.313
 32760, 204.861
 32820, 206.225
 32880, 203.432
 32940, 198.668
 33000, 203.101
 33060, 182.646
 33120, 183.011
 33180, 161.060
 33240, 161.603
 33300, 154.071
 33360, 160.685
 33420, 177.678
 33480, 194.628
 33540, 165.152
 33600, 184.750
 33660, 195.800
 33720, 213.223
 33780, -9999.000
 33840, 190.907
 33900, 196.977
 33960, 202.063
 34020, 208.028
 34080, 203.131
 34140, 204.611
 34200, 222.819
 34260, 233.403
 34320, 236.518
 34380, 220.203
 34440, 201.310
 34500, 191.027
 34560, 186.092
 34620, 201.858
 34680, 204.717
 34740, 212.658
 34800, 228.382
 34860, 216.672
 34920, 234.659
 34980, 226.244
 35040, 200.026
 35100, 192.799
 35160, 199.857
 35220, 238.991
 35280, 218.015
 35340, 201.880
 35400, 184.596
 35460, 218.109
 35520, 220.451
 35580, 194.518
 35640, 210.612
 35700, 202.029
 35760, 178.489
 35820, 192.784
 35880, 200.000
 35940, 257.899
 36000, 250.951
 36060, 233.736
 36120, 205.937
 36180, 188.425
 36240, 195.364
 36300, 175.223
 36360, 203.236
 36420, 206.342
 36480, 211.953
 36540, 173.903
 36600, 169.473
 36660, 197.187
 36720, 176.306
 36780, 165.520
 36840, 153.295
 36900, 157.674
 36960, 167.899
 37020, 140.541
 37080, 172.400
 37140, 154.405
 37200, 162.941
 37260, 164.870
 37320, 161.209
 37380, 141.285
 37440, -9999.000
 37500, 126.083
 37560, 133.162
 37620, 154.327
 37680, 145.587
 37740, 131.859
 37800, 136.088
 37860, 148.442
 37920, 161.141
 37980, 162.543
 38040, 173.814
 38100, 151.925
 38160, 163.668
 38220, 190.858
 38280, 190.787
 38340, 170.152
 38400, 142.199
 38460, 188.607
 38520, 176.542
 38580, 155.708
 38640, 160.274
 38700, 172.849
 38760, 178.607
 38820, 153.429
 38880, 155.683
 38940, 174.890
 39000, 174.716
 39060, 162.992
 39120, 161.432
 39180, 167.627
 39240, 167.119
 39300, -9999.000
 39360, 154.805
 39420, 184.275
 39480, 183.215
 39540, 162.333
 39600, 146.159
 39660, 159.590
 39720, 180.037
 39780, 154.631
 39840, 132.848
 39900, 146.859
 39960, 156.019
 40020, 156.793
 40080, 140.037
 40140, 133.760
 40200, 132.621
 40260, 116.393
 40320, 122.457
 40380, 116.518
 40440, 119.279
 40500, 135.384
 40560, 133.758
 40620, 134.744
 40680, 123.922
 40740, 122.702
 40800, 124.227
 40860, 110.361
 40920, 114.808
 40980, 117.128
 41040, 109.323
 41100, 107.172
 41160, -9999.000
 41220, 119.682
 41280, 121.591
 41340, 116.627
 41400, 121.785
 41460, 146.397
 41520, 150.383
 41580, 138.816
 41640, 148.287
 41700, 155.480
 41760, 147.593
 41820, 136.424
 41880, 137.599
 41940, 152.328
 42000, 147.927
 42060, 143.176
 42120, 144.373
 42180, 167.966
 42240, 161.164
 42300, 150.404
 42360, 132.794
 42420, 152.760
 42480, 162.610
 42540, 156.149
 42600, 180.349
 42660, 219.327
 42720, 229.536
 42780, 206.636
 42840, 202.608
 42900, 221.225
 42960, 250.427
 43020, 225.171
 43080, 217.147
 43140, 245.121
 43200, 254.169
 43260, 217.193
 43320, 196.260
 43380, 213.589
 43440, 252.085
 43500, 293.061
 43560, 257.303
 43620, 287.382
 43680, 284.811
 43740, 265.967
 43800, 245.717
 43860, 249.340
 43920, 247.871
 43980, 223.718
 44040, 197.512
 44100, 211.359
 44160, 221.917
 44220, 223.418
 44280, 196.633
 44340, 234.304
 44400, 203.621
 44460, 209.089
 44520, 202.065
 44580, 224.235
 44640, 237.820
 44700, 197.860
 44760, 190.117
 44820, -9999.000
 44880, 188.626
 44940, 202.664
 45000, 217.676
 45060, 259.320
 45120, 256.387
 45180, 219.507
 45240, 230.558
 45300, 199.266
 45360, 178.344
 45420, 199.051
 45480, 213.404
 45540, 198.716
 45600, 181.213
 45660, 164.361
 45720, 167.792
 45780, 162.962
 45840, 174.616
 45900, 207.209
 45960, 173.980
 46020, 167.482
 46080, 154.551
 46140, 210.110
 46200, 241.177
 46260, 211.668
 46320, 184.886
 46380, 191.495
 46440, 195.625
 46500, 204.089
 46560, 215.707
 46620, 208.672
 46680, -9999.000
 46740, 180.555
 46800, 181.068
 46860, 251.390
 46920, 224.137
 46980, 214.643
 47040, 186.677
 47100, 198.502
 47160, 174.874
 47220, 160.147
 47280, 143.608
 47340, 189.031
 47400, 185.273
 47460, 173.439
 47520, 163.349
 47580, 192.264
 47640, 389.497
 47700, 210.091
 47760, 166.268
 47820, 167.625
 47880, 141.965
 47940, 161.831
 48000, 166.239
 48060, 161.770
 48120, 160.773
 48180, 161.853
 48240, 164.734
 48300, 179.216
 48360, 229.326
 48420, 179.113
 48480, 188.927
 48540, -9999.000
 48600, 213.608
 48660, 182.492
 48720, 195.678
 48780, 200.291
 48840, 215.541
 48900, 245.520
 48960, 232.353
 49020, 212.894
 49080, 147.987
 49140, 133.852
 49200, 152.871
 49260, 142.150
 49320, 141.894
 49380, 149.312
 49440, 178.002
 49500, 168.745
 49560, 184.432
 49620, 182.400
 49680, 172.444
 49740, 167.471
 49800, 180.868
 49860, 195.616
 49920, 193.265
 49980, 192.977
 50040, 195.557
 50100, 196.434
 50160, 168.808
 50220, 162.867
 50280, 136.719
 50340, 131.436
 50400, 157.509
 50460, 180.230
 50520, 171.146
 50580, 153.919
 50640, 130.916
 50700, 135.964
 50760, 113.488
 50820, 93.906
 50880, 100.484
 50940, 103.956
 51000, 110.514
 51060, 106.879
 51120, 126.700
 51180, 125.566
 51240, 105.996
 51300, 110.810
 51360, 102.936
 51420, 111.935
 51480, 106.940
 51540, 94.378
 51600, 95.605
 51660, 93.234
 51720, 111.983
 51780, 115.327
 51840, 93.140
 51900, 89.610
 51960, 99.030
 52020, 89.536
 52080, 85.332
 52140, 106.394
 52200, 90.223
 52260, 95.504
 52320, 112.865
 52380, 126.494
 52440, 122.510
 52500, 138.262
 52560, 102.246
 52620, 121.328
 52680, 165.662
 52740, 168.740
 52800, 145.137
 52860, 96.909
 52920, 110.881
 52980, 106.620
 53040, 105.761
 53100, 93.985
 53160, 97.059
 53220, 89.111
 53280, 117.844
 53340, 108.349
 53400, 102.038
 53460, 91.572
 53520, 91.838
 53580, 77.317
 53640, 71.659
 53700, 94.565
 53760, 78.895
 53820, 98.778
 53880, 84.959
 53940, 94.315
 54000, 90.930
 54060, 87.297
 54120, 80.660
 54180, 80.146
 54240, 95.694
 54300, 100.465
 54360, 89.100
 54420, 70.849
 54480, 59.277
 54540, 66.921
 54600, 58.189
 54660, 56.626
 54720, 44.660
 54780, 68.885
 54840, 54.247
 54900, 54.751
 54960, 63.630
 55020, 66.774
 55080, 74.520
 55140, 64.239
 55200, 68.114
 55260, 73.416
 55320, 65.661
 55380, 64.128
 55440, 66.628
 55500, 82.530
 55560, 66.909
 55620, 65.828
 55680, 66.016
 55740, 67.094
 55800, 80.530
 55860, 95.912
 55920, -9999.000
 55980, 76.181
 56040, 62.720
 56100, 64.040
 56160, 62.975
 56220, 68.486
 56280, 66.996
 56340, 63.007
 56400, 70.934
 56460, 73.345
 56520, 82.408
 56580, 80.055
 56640, 73.024
 56700, 66.619
 56760, 75.985
 56820, 65.531
 56880, 50.317
 56940, 60.486
 57000, 55.862
 57060, 72.929
 57120, 73.089
 57180, 65.951
 57240, 81.809
 57300, 69.097
 57360, 70.858
 57420, 77.837
 57480, 67.708
 57540, 67.016
 57600, 76.873
 57660, 72.707
 57720, 110.091
 57780, 105.170
 57840, 71.787
 57900, 74.447
 57960, 56.306
 58020, 53.732
 58080, 54.096
 58140, 64.203
 58200, 55.485
 58260, 61.904
 58320, 64.066
 58380, -9999.000
 58440, 52.140
 58500, 49.266
 58560, 51.679
 58620, 47.952
 58680, 30.912
 58740, 25.858
 58800,  9.489
 58860,  2.565
 58920, -2.855
 58980, -7.664
 59040, -12.823
 59100, -22.217
 59160, -9999.000
 59220, -9999.000
 59280, -9999.000
 59340, -9999.000
 59400, -9999.000
 59460, -9999.000
 59520, -9999.000
 59580, -9999.000
 59640, -9999.000
 59700, -9999.000
 59760, -9999.000
 59820, -9999.000
 59880, -9999.000
 59940, -9999.000
 60000, -9999.000
 60060, -9999.000
 60120, -9999.000
 60180, -9999.000
 60240, -9999.000
 60300, -9999.000
 60360, -9999.000
 60420, -9999.000
 60480, -9999.000
 60540, -9999.000
 60600, -9999.000
 60660, -9999.000
 60720, -9999.000
 60780, -9999.000
 60840, -9999.000
 60900, -9999.000
 60960, -9999.000
 61020, -9999.000
 61080, -9999.000
 61140, -9999.000
 61200, -9999.000
 61260, 30.594
 61320, 31.866
 61380, 50.342
 61440, -9999.000
 61500, -50.860
 61560, -69.938
 61620, -92.244
 61680, -105.494
 61740, -112.115
 61800, -112.991
 61860, -115.146
 61920, -115.618
 61980, -112.827
 62040, -113.035
 62100, -110.518
 62160, -117.405
 62220, -115.732
 62280, -109.949
 62340, -99.901
 62400, -103.269
 62460, -97.515
 62520, -86.541
 62580, -81.606
 62640, -71.232
 62700, -64.180
 62760, -65.982
 62820, -40.814
 62880, -56.520
 62940, -48.084
 63000, -30.476
 63060, -31.316
 63120, -9.847
 63180,  7.227
 63240, 23.593
 63300, -9999.000
 63360, 42.800
 63420, 46.536
 63480, 47.508
 63540, 21.591
 63600, 17.759
 63660, 15.143
 63720, 14.534
 63780,  9.567
 63840, 14.894
 63900, 11.476
 63960,  7.394
 64020,  0.950
 64080, 17.695
 64140, 24.447
 64200, 22.561
 64260, 14.265
 64320, 18.162
 64380, 12.874
 64440, 17.053
 64500, 25.703
 64560, 28.279
 64620, 23.875
 64680, 24.856
 64740, 35.262
 64800, 37.804
 64860, 36.250
 64920, 50.878
 64980, 55.390
 65040, 66.497
 65100, 61.675
 65160, -9999.000
 65220, 73.072
 65280, 53.398
 65340, 65.936
 65400, 55.774
 65460, 69.204
 65520, 63.932
 65580, 52.280
 65640, 65.535
 65700, 50.459
 65760, 56.286
 65820, 43.545
 65880, 49.376
 65940, 50.718
 66000, 45.874
 66060, 42.942
 66120, 52.152
 66180, 41.238
 66240, 50.897
 66300, 41.537
 66360, 46.439
 66420, 35.529
 66480, 38.180
 66540, 28.609
 66600, 32.233
 66660, 42.473
 66720, 38.633
 66780, 54.587
 66840, 46.709
 66900, 62.322
 66960, 47.975
 67020, 43.380
 67080, 48.185
 67140, 53.650
 67200, 45.617
 67260, 43.836
 67320, 41.884
 67380, 48.836
 67440, 45.013
 67500, 47.386
 67560, 52.814
 67620, 38.422
 67680, 44.589
 67740, 39.958
 67800, 53.239
 67860, 41.454
 67920, 40.204
 67980, 46.570
 68040, 36.099
 68100, 36.131
 68160, 36.779
 68220, 39.785
 68280, 33.988
 68340, 31.097
 68400, 59.948
 68460, 55.479
 68520, 62.068
 68580, 82.976
 68640, 67.521
 68700, 36.201
 68760, 44.989
 68820, -9999.000
 68880, 185.196
 68940, 45.107
 69000, 58.411
 69060, 58.623
 69120, 76.814
 69180, 81.461
 69240, 74.966
 69300, 71.797
 69360, 47.285
 69420, 79.508
 69480, 95.617
 69540, 93.083
 69600, 58.972
 69660, 54.403
 69720, 69.139
 69780, 72.505
 69840, 59.345
 69900, 63.731
 69960, 50.020
 70020, 68.116
 70080, 54.861
 70140, 58.772
 70200, 68.270
 70260, 67.091
 70320, 87.865
 70380, 71.408
 70440, 86.739
 70500, 67.456
 70560, 74.961
 70620, 70.909
 70680, -9999.000
 70740, 83.149
 70800, 74.659
 70860, 71.066
 70920, 80.078
 70980, 97.375
 71040, 104.735
 71100, 71.005
 71160, 73.269
 71220, 69.873
 71280, 131.321
 71340, 96.380
 71400, 79.131
 71460, 77.327
 71520, 94.232
 71580, 97.421
 71640, 63.199
 71700, 54.363
 71760, 78.365
 71820, 90.653
 71880, 143.767
 71940, 79.783
 72000, 145.594
 72060, 109.812
 72120, 66.119
 72180, 66.165
 72240, 71.857
 72300, 83.413
 72360, 92.529
 72420, 76.756
 72480, 97.680
 72540, -9999.000
 72600, 126.602
 72660, 68.665
 72720, 109.095
 72780, 123.801
 72840, 91.417
 72900, 99.198
 72960, 100.176
 73020, 122.953
 73080, 72.279
 73140, 72.154
 73200, 83.168
 73260, 83.335
 73320, 92.746
 73380, 78.577
 73440, 72.104
 73500, 82.889
 73560, 80.610
 73620, 111.886
 73680, 114.246
 73740, 114.729
 73800, 66.988
 73860, 79.007
 73920, 81.380
 73980, 66.499
 74040, 78.979
 74100, 105.334
 74160, 101.002
 74220, 99.085
 74280, 95.399
 74340, 102.103
 74400, 89.288
 74460, 87.996
 74520, 106.467
 74580, 111.184
 74640, 83.360
 74700, 88.160
 74760, 107.045
 74820, 89.976
 74880, 118.391
 74940, 89.878
 75000, 56.138
 75060, 125.493
 75120, 110.289
 75180, 83.933
 75240, 112.987
 75300, 72.849
 75360, 95.757
 75420, 89.190
 75480, 69.982
 75540, 90.666
 75600, 127.804
 75660, 77.384
 75720, 85.692
 75780, 90.842
 75840, 102.183
 75900, 77.742
 75960, 80.266
 76020, 93.524
 76080, 85.828
 76140, 83.965
 76200, 84.025
 76260, 83.520
 76320, 82.229
 76380, 78.372
 76440, 78.033
 76500, 65.111
 76560, 63.609
 76620, 63.918
 76680, 73.061
 76740, 70.304
 76800, 69.371
 76860, 56.145
 76920, 47.462
 76980, 55.397
 77040, 49.662
 77100, 82.667
 77160, 68.452
 77220, 70.524
 77280, 84.596
 77340, 64.732
 77400, 88.762
 77460, 74.098
 77520, 60.236
 77580, 46.790
 77640, 59.936
 77700, 64.681
 77760, 78.066
 77820, 46.863
 77880, 65.392
 77940, 72.527
 78000, 100.637
 78060, 78.382
 78120, 80.656
 78180, 54.102
 78240, 58.459
 78300, 74.448
 78360, 63.218
 78420, 51.914
 78480, 43.509
 78540, 67.078
 78600, 66.859
 78660, 74.529
 78720, 97.065
 78780, 100.608
 78840, 94.728
 78900, 79.076
 78960, 48.403
 79020, 71.403
 79080, 71.007
 79140, 92.501
 79200, 97.058
 79260, 91.642
 79320, 48.832
 79380, 52.293
 79440, 46.527
 79500, 97.948
 79560, 97.624
 79620, 88.916
 79680, 50.803
 79740, 71.757
 79800, 90.894
 79860, 59.485
 79920, -9999.000
 79980, 74.195
 80040, 59.742
 80100, 75.443
 80160, 67.919
 80220, 65.789
 80280, 74.832
 80340, 94.927
 80400, 65.464
 80460, 58.677
 80520, 55.408
 80580, 45.571
 80640, 53.374
 80700, 89.347
 80760, 70.993
 80820, 72.220
 80880, 42.036
 80940, 63.871
 81000, 54.253
 81060, 81.246
 81120, 93.445
 81180, 157.325
 81240, 49.584
 81300, 50.137
 81360, 55.852
 81420, 67.957
 81480, 48.484
 81540, 74.875
 81600, 65.536
 81660, 73.313
 81720, 54.381
 81780, 104.879
 81840, 67.561
 81900, 66.511
 81960, 68.847
 82020, 64.828
 82080, 74.226
 82140, 78.961
 82200, 86.024
 82260, 109.446
 82320, 72.259
 82380, 57.947
 82440, 84.473
 82500, 51.675
 82560, 74.384
 82620, 66.526
 82680, 63.635
 82740, 59.154
 82800, 47.760
 82860, 49.897
 82920, 71.038
 82980, 113.617
 83040, 59.773
 83100, 68.756
 83160, 70.373
 83220, 79.317
 83280, 64.410
 83340, 69.205
 83400, 41.658
 83460, 69.270
 83520, 59.987
 83580, 44.353
 83640, 88.212
 83700, 43.562
 83760, 55.970
 83820, 57.017
 83880, 51.560
 83940, 52.644
 84000, 28.523
 84060, 20.469
 84120, 52.048
 84180, 24.967
 84240, -9999.000
 84300, -9999.000
 84360, 38.548
 84420, 18.662
 84480, 25.857
 84540, 60.200
 84600, 29.797
 84660, 42.734
 84720, 36.805
 84780, 51.087
 84840, 54.934
 84900, 29.205
 84960, 35.089
 85020, 45.128
 85080, 22.905
 85140, 27.147
 85200, 41.134
 85260, 38.241
 85320, 47.635
 85380, 37.423
 85440, 41.616
 85500, 48.800
 85560, 55.172
 85620, 37.468
 85680, 26.219
 85740, 34.009
 85800, 34.484
 85860, 43.097
 85920, 27.846
 85980, 33.813
 86040, 29.255
 86100,  2.934
 86160, 34.153
 86220, 30.009
 86280, 44.963
 86340, 33.610
