33, 1001
Michael A Robinson, Chris Jernigan, Subi Thakali
NOAA ESRL Chemical Sciences Laboratory and CIRES, U. of Colorado
NOAA Iodide CIMS Instrument
USOS
1, 1
2024, 08, 16, 2024, 08, 18
1
starttime_UTC, seconds_past_midnight, seconds_of_day_since_00:00:00_UTC
1
1
-9999
HNO3_NOAACIMS, pptv, Gas_HNO3_InSitu_S_AVMR, 
0
18
PI_CONTACT_INFO: 325 Broadway, R/CSD 7, Boulder, Colorado 80305; michael.a.robinson@noaa.gov; chris.jernigan@noaa.gov;
PLATFORM: NOAA CSL Mobile Lab
LOCATION: SLC, Utah
ASSOCIATED_DATA: 1Hz data also available on request.
INSTRUMENT_INFO: NOAA I- ToF CIMS
DATA_INFO: All data in parts per trillion by volume (pptv). 1 Hz data is available upon request.
UNCERTAINTY: TBD
ULOD_FLAG: -7777
ULOD_VALUE: N/A
LLOD_FLAG: -8888
LLOD_VALUE: N/A
DM_CONTACT_INFO: Nathan Howard; nathan.h.howard@noaa.gov
PROJECT_INFO: USOS, summer 2024. https://csl.noaa.gov/groups/csl7/measurements/2024usos/
STIPULATIONS_ON_USE: Users are strongly encouraged to contact the PI for proper data usage.
OTHER_COMMENTS: 
REVISION: RA
RA: Preliminary Data; For in-field use only
starttime_UTC, HNO3_NOAACIMS
     0, 329.205
    60, 365.627
   120, 410.999
   180, 274.934
   240, 298.852
   300, 317.433
   360, 315.684
   420, 317.614
   480, -9999.000
   540, 257.913
   600, 258.846
   660, 279.662
   720, 288.284
   780, 301.307
   840, 295.526
   900, 308.896
   960, 312.429
  1020, 320.817
  1080, 324.183
  1140, 328.833
  1200, 300.020
  1260, 268.060
  1320, 277.201
  1380, 267.984
  1440, 278.218
  1500, 266.853
  1560, 266.046
  1620, 246.240
  1680, 229.360
  1740, 234.381
  1800, 248.193
  1860, 262.404
  1920, 247.681
  1980, 245.633
  2040, 197.749
  2100, 191.648
  2160, 211.408
  2220, 259.956
  2280, 300.968
  2340, 317.650
  2400, 299.820
  2460, 303.611
  2520, 298.599
  2580, 285.802
  2640, 288.418
  2700, 265.793
  2760, 257.410
  2820, 278.522
  2880, 266.932
  2940, 288.862
  3000, 290.313
  3060, 300.626
  3120, 319.565
  3180, 311.930
  3240, 299.815
  3300, 314.820
  3360, 312.690
  3420, 312.322
  3480, 306.720
  3540, 309.632
  3600, 350.524
  3660, 378.914
  3720, 370.513
  3780, 324.999
  3840, 311.687
  3900, 315.907
  3960, 312.203
  4020, 308.773
  4080, 302.417
  4140, 310.192
  4200, -9999.000
  4260, 258.004
  4320, 267.653
  4380, 267.143
  4440, 238.846
  4500, 227.180
  4560, 208.084
  4620, 212.770
  4680, 213.808
  4740, 231.988
  4800, 247.621
  4860, 272.580
  4920, 272.978
  4980, 286.795
  5040, 283.043
  5100, 267.806
  5160, 259.674
  5220, 273.790
  5280, 285.367
  5340, 262.420
  5400, 262.942
  5460, 292.004
  5520, 303.629
  5580, 283.887
  5640, 256.467
  5700, 277.357
  5760, 267.242
  5820, 252.604
  5880, 260.213
  5940, 245.983
  6000, 250.112
  6060, 236.994
  6120, 230.042
  6180, 215.191
  6240, 242.305
  6300, 252.686
  6360, 210.355
  6420, 207.111
  6480, 216.526
  6540, 223.744
  6600, 222.202
  6660, 225.599
  6720, 251.065
  6780, 260.609
  6840, 260.117
  6900, 332.348
  6960, 222.209
  7020, 348.490
  7080, 222.286
  7140, 241.905
  7200, 241.292
  7260, 248.706
  7320, 248.327
  7380, 215.640
  7440, 215.144
  7500, 221.368
  7560, 216.926
  7620, 203.017
  7680, 198.498
  7740, 184.624
  7800, 167.284
  7860, 164.312
  7920, 137.834
  7980, 117.636
  8040, 116.101
  8100, 139.300
  8160, 145.603
  8220, 197.229
  8280, 155.550
  8340, 156.530
  8400, 179.928
  8460, 177.260
  8520, 166.179
  8580, 160.154
  8640, 157.878
  8700, 143.365
  8760, 149.035
  8820, 150.347
  8880, 159.068
  8940, 154.095
  9000, 157.929
  9060, 160.106
  9120, 159.544
  9180, 161.565
  9240, 145.765
  9300, 145.942
  9360, 141.835
  9420, 147.985
  9480, 134.268
  9540, 135.037
  9600, 141.738
  9660, 148.733
  9720, 147.171
  9780, 150.951
  9840, 150.920
  9900, 191.520
  9960, 154.139
 10020, 136.798
 10080, 131.254
 10140, 123.736
 10200, 125.401
 10260, 123.092
 10320, 120.503
 10380, 159.210
 10440, 104.083
 10500, 123.824
 10560, 116.354
 10620, 108.763
 10680, 103.837
 10740, 104.756
 10800, 97.984
 10860, 112.508
 10920, 111.017
 10980, 112.941
 11040, 110.606
 11100, 112.402
 11160, 115.688
 11220, 119.711
 11280, 122.487
 11340, 126.964
 11400, 124.846
 11460, 120.476
 11520, 120.337
 11580, -9999.000
 11640, 125.629
 11700, 125.676
 11760, 135.711
 11820, 142.129
 11880, 142.890
 11940, 141.251
 12000, 136.912
 12060, 136.620
 12120, 133.382
 12180, 136.512
 12240, 126.951
 12300, 125.517
 12360, 121.447
 12420, 118.186
 12480, 113.194
 12540, 111.947
 12600, 105.369
 12660, 110.822
 12720, 111.318
 12780, 114.854
 12840, 119.631
 12900, 117.614
 12960, 110.599
 13020, 105.420
 13080, 112.397
 13140, 109.921
 13200, 109.677
 13260, 112.097
 13320, 114.473
 13380, 107.596
 13440, -9999.000
 13500, 108.294
 13560, 113.816
 13620, 119.010
 13680, 123.180
 13740, 126.530
 13800, 131.207
 13860, 132.233
 13920, 126.327
 13980, 121.226
 14040, 125.401
 14100, 121.941
 14160, 117.348
 14220, 112.812
 14280, 118.082
 14340, 104.282
 14400, 79.942
 14460, 86.121
 14520, 85.777
 14580, 85.740
 14640, 79.440
 14700, 67.327
 14760, 69.861
 14820, 71.223
 14880, 73.541
 14940, 74.377
 15000, 79.174
 15060, 80.592
 15120, 81.466
 15180, 79.761
 15240, 74.547
 15300, -9999.000
 15360, 79.770
 15420, 76.361
 15480, 77.335
 15540, 78.193
 15600, 82.076
 15660, 86.259
 15720, 79.676
 15780, 70.920
 15840, 73.127
 15900, 72.297
 15960, 77.169
 16020, 81.123
 16080, 85.259
 16140, 80.079
 16200, 83.168
 16260, 76.200
 16320, 77.297
 16380, 78.779
 16440, 67.570
 16500, 71.591
 16560, 73.613
 16620, 73.189
 16680, 72.480
 16740, 67.857
 16800, 63.984
 16860, 69.752
 16920, 75.920
 16980, 76.850
 17040, 75.073
 17100, 74.839
 17160, 84.994
 17220, 86.966
 17280, 84.151
 17340, 83.204
 17400, 77.763
 17460, 80.386
 17520, 80.213
 17580, 83.375
 17640, 79.706
 17700, 74.038
 17760, 71.298
 17820, 73.015
 17880, 77.990
 17940, 68.155
 18000, 61.590
 18060, 57.402
 18120, 55.301
 18180, 59.141
 18240, 63.663
 18300, 62.733
 18360, 69.142
 18420, 69.745
 18480, 70.142
 18540, 68.445
 18600, 62.134
 18660, 60.080
 18720, 63.617
 18780, 65.033
 18840, 70.184
 18900, 69.732
 18960, -9999.000
 19020, 77.216
 19080, 82.679
 19140, 82.645
 19200, 83.816
 19260, 83.300
 19320, 79.423
 19380, 80.997
 19440, 84.444
 19500, 87.093
 19560, 87.655
 19620, 79.250
 19680, 77.121
 19740, 77.163
 19800, 77.483
 19860, 76.255
 19920, 74.752
 19980, 74.205
 20040, 78.298
 20100, 82.041
 20160, 79.443
 20220, 82.349
 20280, 79.724
 20340, 78.481
 20400, 75.064
 20460, 68.496
 20520, 72.214
 20580, 70.219
 20640, 67.586
 20700, 66.735
 20760, 70.618
 20820, -9999.000
 20880, 81.024
 20940, 75.479
 21000, 71.413
 21060, 73.035
 21120, 72.223
 21180, 77.512
 21240, 80.829
 21300, 80.484
 21360, 79.674
 21420, 78.086
 21480, 79.247
 21540, 77.786
 21600, 75.997
 21660, 75.704
 21720, 75.533
 21780, 73.984
 21840, 75.234
 21900, 76.993
 21960, 78.845
 22020, 84.445
 22080, 82.413
 22140, 77.949
 22200, 75.453
 22260, 76.741
 22320, 72.173
 22380, 69.950
 22440, 68.627
 22500, 68.490
 22560, 66.183
 22620, 68.595
 22680, -9999.000
 22740, 77.418
 22800, 76.830
 22860, 76.948
 22920, 74.605
 22980, 70.924
 23040, 70.124
 23100, 70.094
 23160, 69.857
 23220, 67.270
 23280, 64.818
 23340, 63.514
 23400, 66.105
 23460, 66.573
 23520, 66.779
 23580, 66.347
 23640, 67.325
 23700, 70.005
 23760, 70.642
 23820, 66.986
 23880, 65.123
 23940, 62.869
 24000, 64.824
 24060, 63.366
 24120, 61.682
 24180, 59.897
 24240, 62.688
 24300, 64.277
 24360, 64.481
 24420, 61.620
 24480, 58.978
 24540, 64.049
 24600, 65.295
 24660, 65.938
 24720, 63.194
 24780, 61.246
 24840, 64.558
 24900, 61.444
 24960, 61.097
 25020, 58.923
 25080, 57.712
 25140, 58.430
 25200, 60.057
 25260, 57.951
 25320, 57.198
 25380, 58.793
 25440, 55.356
 25500, 59.321
 25560, 61.817
 25620, 64.356
 25680, 65.019
 25740, 69.436
 25800, 70.744
 25860, 71.536
 25920, 74.269
 25980, 74.321
 26040, 76.374
 26100, 76.311
 26160, 79.724
 26220, 81.100
 26280, 77.714
 26340, 72.625
 26400, 79.697
 26460, 78.061
 26520, 80.975
 26580, 83.053
 26640, 78.608
 26700, 78.332
 26760, 76.244
 26820, 77.769
 26880, 76.997
 26940, 75.686
 27000, 77.512
 27060, 82.162
 27120, 78.422
 27180, 79.905
 27240, 76.131
 27300, 72.572
 27360, 73.483
 27420, 74.647
 27480, 74.014
 27540, 71.083
 27600, 64.343
 27660, 61.308
 27720, 57.441
 27780, 62.377
 27840, 63.903
 27900, 64.062
 27960, 65.558
 28020, 67.902
 28080, 66.255
 28140, 69.655
 28200, 71.481
 28260, 71.678
 28320, 71.957
 28380, 70.560
 28440, 68.589
 28500, 70.263
 28560, 72.287
 28620, 72.416
 28680, 73.696
 28740, 75.911
 28800, 70.964
 28860, 71.669
 28920, 69.014
 28980, 65.420
 29040, 67.258
 29100, 64.930
 29160, 67.276
 29220, 66.107
 29280, 64.684
 29340, 62.341
 29400, 63.994
 29460, 65.448
 29520, 66.540
 29580, 64.494
 29640, 66.575
 29700, 67.864
 29760, 67.426
 29820, 61.474
 29880, 59.904
 29940, 62.025
 30000, 62.244
 30060, -9999.000
 30120, 65.102
 30180, 59.627
 30240, 58.017
 30300, 58.637
 30360, 57.882
 30420, 58.313
 30480, 56.426
 30540, 56.940
 30600, 56.412
 30660, 58.283
 30720, 61.602
 30780, 60.994
 30840, 55.901
 30900, 54.703
 30960, 55.862
 31020, 60.352
 31080, 60.999
 31140, 58.972
 31200, 58.263
 31260, 60.871
 31320, 59.235
 31380, 57.342
 31440, 55.724
 31500, 57.297
 31560, 57.652
 31620, 55.437
 31680, 58.470
 31740, 62.666
 31800, 61.965
 31860, 60.155
 31920, 63.418
 31980, 61.763
 32040, 62.188
 32100, 64.287
 32160, 61.620
 32220, 59.600
 32280, 63.518
 32340, 64.462
 32400, 64.387
 32460, 64.364
 32520, 64.922
 32580, 63.363
 32640, 63.001
 32700, 61.895
 32760, 64.020
 32820, 67.226
 32880, 65.410
 32940, 64.650
 33000, 64.348
 33060, 65.897
 33120, 66.372
 33180, 62.472
 33240, 62.018
 33300, 63.248
 33360, 64.604
 33420, 65.102
 33480, 64.772
 33540, 62.344
 33600, 64.765
 33660, 63.072
 33720, 62.580
 33780, -9999.000
 33840, 68.125
 33900, 67.627
 33960, 64.912
 34020, 66.082
 34080, 65.514
 34140, 64.574
 34200, 65.235
 34260, 64.026
 34320, 61.742
 34380, 60.851
 34440, 59.338
 34500, 57.514
 34560, 58.241
 34620, 59.981
 34680, 61.815
 34740, 60.414
 34800, 60.407
 34860, 61.361
 34920, 61.443
 34980, 57.380
 35040, 58.850
 35100, 59.472
 35160, 59.639
 35220, 59.011
 35280, 60.474
 35340, 59.917
 35400, 57.898
 35460, 59.173
 35520, 59.307
 35580, 61.611
 35640, 62.976
 35700, 61.114
 35760, 60.148
 35820, 63.260
 35880, 62.910
 35940, 66.275
 36000, 66.384
 36060, 63.875
 36120, 60.040
 36180, 55.951
 36240, 56.031
 36300, 57.349
 36360, 56.937
 36420, 56.709
 36480, 57.348
 36540, 56.531
 36600, 56.416
 36660, 56.570
 36720, 55.062
 36780, 56.391
 36840, 57.063
 36900, 56.720
 36960, 56.943
 37020, 57.528
 37080, 60.515
 37140, 60.052
 37200, 59.927
 37260, 59.775
 37320, 60.988
 37380, 60.855
 37440, -9999.000
 37500, 67.483
 37560, 65.689
 37620, 66.837
 37680, 66.019
 37740, 65.677
 37800, 67.400
 37860, 67.976
 37920, 68.119
 37980, 67.020
 38040, 67.877
 38100, 68.702
 38160, 68.053
 38220, 67.325
 38280, 68.924
 38340, 70.137
 38400, 67.274
 38460, 66.921
 38520, 63.902
 38580, 65.022
 38640, 64.117
 38700, 62.755
 38760, 60.187
 38820, 61.915
 38880, 60.484
 38940, 58.547
 39000, 58.358
 39060, 57.628
 39120, 56.804
 39180, 56.224
 39240, 57.339
 39300, -9999.000
 39360, 63.788
 39420, 62.403
 39480, 62.123
 39540, 63.784
 39600, 64.625
 39660, 65.827
 39720, 64.464
 39780, 65.367
 39840, 64.269
 39900, 63.751
 39960, 62.252
 40020, 63.096
 40080, 64.970
 40140, 65.414
 40200, 64.455
 40260, 64.233
 40320, 64.073
 40380, 63.984
 40440, 61.941
 40500, 63.091
 40560, 63.628
 40620, 63.851
 40680, 62.681
 40740, 61.912
 40800, 62.514
 40860, 61.822
 40920, 63.223
 40980, 61.119
 41040, 64.063
 41100, 65.260
 41160, -9999.000
 41220, 69.649
 41280, 68.177
 41340, 68.249
 41400, 68.812
 41460, 69.623
 41520, 71.446
 41580, 71.004
 41640, 70.694
 41700, 70.909
 41760, 68.631
 41820, 69.932
 41880, 68.752
 41940, 67.442
 42000, 68.163
 42060, 69.187
 42120, 69.905
 42180, 68.309
 42240, 66.796
 42300, 66.602
 42360, 64.715
 42420, 64.313
 42480, 63.590
 42540, 62.112
 42600, 62.304
 42660, 62.080
 42720, 60.815
 42780, 61.185
 42840, 60.506
 42900, 59.935
 42960, 60.407
 43020, 67.006
 43080, 65.885
 43140, 64.203
 43200, 63.706
 43260, 64.400
 43320, 64.323
 43380, 64.015
 43440, 66.935
 43500, 70.326
 43560, 67.162
 43620, 67.421
 43680, 66.854
 43740, 64.697
 43800, 60.589
 43860, 57.267
 43920, 55.768
 43980, 54.657
 44040, 52.227
 44100, 52.688
 44160, 51.731
 44220, 52.554
 44280, 51.684
 44340, 52.216
 44400, 48.546
 44460, 48.787
 44520, 47.884
 44580, 47.974
 44640, 49.330
 44700, 48.592
 44760, 47.008
 44820, -9999.000
 44880, 59.286
 44940, 57.326
 45000, 55.753
 45060, 55.263
 45120, 57.329
 45180, 55.542
 45240, 54.857
 45300, 54.125
 45360, 52.788
 45420, 53.102
 45480, 53.266
 45540, 54.012
 45600, 54.281
 45660, 53.287
 45720, 53.693
 45780, 54.310
 45840, 54.767
 45900, 55.710
 45960, 50.927
 46020, 52.903
 46080, 52.975
 46140, 53.869
 46200, 52.793
 46260, 51.072
 46320, 51.315
 46380, 49.097
 46440, 48.590
 46500, 49.029
 46560, 47.269
 46620, 46.539
 46680, -9999.000
 46740, 49.379
 46800, 41.020
 46860, 55.543
 46920, 146.972
 46980, 173.019
 47040, 154.321
 47100, 140.820
 47160, 131.475
 47220, 125.145
 47280, 118.869
 47340, 115.716
 47400, 112.966
 47460, 112.023
 47520, 108.799
 47580, 105.115
 47640, 110.334
 47700, 102.085
 47760, 93.952
 47820, 90.458
 47880, 86.551
 47940, 87.816
 48000, 85.971
 48060, 83.776
 48120, 81.059
 48180, 79.749
 48240, 78.329
 48300, 74.727
 48360, 74.273
 48420, 69.637
 48480, 66.683
 48540, -9999.000
 48600, 87.607
 48660, 80.545
 48720, 76.310
 48780, 71.631
 48840, 71.701
 48900, 73.280
 48960, 68.158
 49020, 61.432
 49080, 54.328
 49140, 56.354
 49200, 61.488
 49260, 60.183
 49320, 60.039
 49380, 62.011
 49440, 65.710
 49500, 63.477
 49560, 62.808
 49620, 60.950
 49680, 61.758
 49740, 63.535
 49800, 66.446
 49860, 64.995
 49920, 64.811
 49980, 66.516
 50040, 65.413
 50100, 66.384
 50160, 62.573
 50220, 62.394
 50280, 60.310
 50340, 65.355
 50400, 80.433
 50460, 80.395
 50520, 79.648
 50580, 78.475
 50640, 76.389
 50700, 75.510
 50760, 74.929
 50820, 75.080
 50880, 78.518
 50940, 84.362
 51000, 85.545
 51060, 86.133
 51120, 88.169
 51180, 87.648
 51240, 89.950
 51300, 95.718
 51360, 97.641
 51420, 102.493
 51480, 102.703
 51540, 108.146
 51600, 115.733
 51660, 120.357
 51720, 124.432
 51780, 123.254
 51840, 121.358
 51900, 128.201
 51960, 134.824
 52020, 139.703
 52080, 145.519
 52140, 150.892
 52200, 150.108
 52260, 137.217
 52320, 137.532
 52380, 143.815
 52440, 150.935
 52500, 156.408
 52560, 155.211
 52620, 162.791
 52680, 171.319
 52740, 170.406
 52800, 169.065
 52860, 175.462
 52920, 194.421
 52980, 200.465
 53040, 211.588
 53100, 209.206
 53160, 217.399
 53220, 217.231
 53280, 223.349
 53340, 221.133
 53400, 224.200
 53460, 233.806
 53520, 236.431
 53580, 234.831
 53640, 234.496
 53700, 239.166
 53760, 231.541
 53820, 240.420
 53880, 237.446
 53940, 237.584
 54000, 232.679
 54060, 235.746
 54120, 229.436
 54180, 238.807
 54240, 242.908
 54300, 239.980
 54360, 239.377
 54420, 240.909
 54480, 245.151
 54540, 249.228
 54600, 248.512
 54660, 251.682
 54720, 243.569
 54780, 255.064
 54840, 255.211
 54900, 258.834
 54960, 256.571
 55020, 255.154
 55080, 248.779
 55140, 245.238
 55200, 243.558
 55260, 248.208
 55320, 252.216
 55380, 260.099
 55440, 268.835
 55500, 281.798
 55560, 289.115
 55620, 290.590
 55680, 293.720
 55740, 294.389
 55800, 297.048
 55860, 294.546
 55920, -9999.000
 55980, 249.400
 56040, 253.849
 56100, 266.273
 56160, 275.586
 56220, 274.083
 56280, 266.274
 56340, 263.752
 56400, 280.383
 56460, 291.684
 56520, 298.262
 56580, 296.690
 56640, 303.174
 56700, 303.342
 56760, 324.363
 56820, 330.773
 56880, 331.700
 56940, 335.088
 57000, 323.102
 57060, 316.819
 57120, 306.683
 57180, 303.034
 57240, 310.009
 57300, 308.968
 57360, 312.096
 57420, 319.003
 57480, 315.875
 57540, 318.827
 57600, 328.022
 57660, 337.162
 57720, 272.556
 57780, 244.067
 57840, 328.256
 57900, 339.340
 57960, 336.511
 58020, 348.290
 58080, 355.654
 58140, 359.395
 58200, 350.548
 58260, 350.592
 58320, 360.892
 58380, -9999.000
 58440, 338.505
 58500, 348.187
 58560, 358.108
 58620, 370.183
 58680, 377.130
 58740, 387.116
 58800, 411.089
 58860, 411.602
 58920, 407.037
 58980, 409.875
 59040, 416.023
 59100, 408.710
 59160, -9999.000
 59220, -9999.000
 59280, -9999.000
 59340, -9999.000
 59400, -9999.000
 59460, -9999.000
 59520, -9999.000
 59580, -9999.000
 59640, -9999.000
 59700, -9999.000
 59760, -9999.000
 59820, -9999.000
 59880, -9999.000
 59940, -9999.000
 60000, -9999.000
 60060, -9999.000
 60120, -9999.000
 60180, -9999.000
 60240, -9999.000
 60300, -9999.000
 60360, -9999.000
 60420, -9999.000
 60480, -9999.000
 60540, -9999.000
 60600, -9999.000
 60660, -9999.000
 60720, -9999.000
 60780, -9999.000
 60840, -9999.000
 60900, -9999.000
 60960, -9999.000
 61020, -9999.000
 61080, -9999.000
 61140, -9999.000
 61200, -9999.000
 61260, 250.831
 61320, 309.301
 61380, 306.510
 61440, -9999.000
 61500, 287.215
 61560, 292.398
 61620, 291.999
 61680, 292.577
 61740, 285.950
 61800, 276.666
 61860, 279.963
 61920, 278.905
 61980, 282.875
 62040, 290.769
 62100, 301.230
 62160, 296.334
 62220, 296.557
 62280, 296.319
 62340, 290.636
 62400, 294.593
 62460, 306.335
 62520, 321.694
 62580, 300.239
 62640, 301.970
 62700, 310.959
 62760, 312.257
 62820, 312.594
 62880, 316.474
 62940, 319.097
 63000, 317.821
 63060, 320.580
 63120, 330.695
 63180, 327.666
 63240, 319.768
 63300, -9999.000
 63360, 328.646
 63420, 333.925
 63480, 331.714
 63540, 339.939
 63600, 366.653
 63660, 377.474
 63720, 382.776
 63780, 375.122
 63840, 384.139
 63900, 401.773
 63960, 401.890
 64020, 403.114
 64080, 423.382
 64140, 421.589
 64200, 415.067
 64260, 435.839
 64320, 459.304
 64380, 460.688
 64440, 465.687
 64500, 470.434
 64560, 476.995
 64620, 475.807
 64680, 466.642
 64740, 473.180
 64800, 505.941
 64860, 500.778
 64920, 484.213
 64980, 470.125
 65040, 467.101
 65100, 464.288
 65160, -9999.000
 65220, 439.054
 65280, 463.554
 65340, 456.365
 65400, 455.096
 65460, 474.334
 65520, 451.457
 65580, 462.110
 65640, 447.266
 65700, 423.434
 65760, 428.040
 65820, 411.387
 65880, 406.008
 65940, 406.982
 66000, 405.648
 66060, 403.077
 66120, 401.467
 66180, 405.790
 66240, 403.145
 66300, 390.917
 66360, 374.422
 66420, 360.195
 66480, 359.095
 66540, 341.967
 66600, 345.594
 66660, 330.837
 66720, 325.176
 66780, 307.553
 66840, 281.987
 66900, 260.266
 66960, 228.136
 67020, 291.054
 67080, 286.353
 67140, 293.298
 67200, 284.739
 67260, 283.723
 67320, 270.436
 67380, 255.483
 67440, 273.690
 67500, 285.266
 67560, 284.967
 67620, 301.046
 67680, 319.907
 67740, 315.898
 67800, 333.268
 67860, 338.185
 67920, 353.823
 67980, 344.390
 68040, 334.326
 68100, 332.023
 68160, 324.281
 68220, 318.784
 68280, 313.228
 68340, 305.752
 68400, 310.924
 68460, 302.584
 68520, 280.272
 68580, 279.703
 68640, 267.394
 68700, 278.609
 68760, 293.103
 68820, -9999.000
 68880, 224.182
 68940, 267.479
 69000, 272.211
 69060, 271.406
 69120, 276.102
 69180, 244.298
 69240, 258.043
 69300, 267.086
 69360, 286.369
 69420, 268.718
 69480, 258.783
 69540, 266.089
 69600, 295.375
 69660, 289.746
 69720, 305.646
 69780, 305.395
 69840, 317.237
 69900, 342.798
 69960, 329.958
 70020, 338.481
 70080, 348.028
 70140, 346.648
 70200, 352.297
 70260, 343.849
 70320, 339.274
 70380, 317.102
 70440, 289.152
 70500, 268.708
 70560, 287.310
 70620, 289.887
 70680, -9999.000
 70740, 256.708
 70800, 261.320
 70860, 301.136
 70920, 323.253
 70980, 326.926
 71040, 281.486
 71100, 296.238
 71160, 319.867
 71220, 328.499
 71280, 365.666
 71340, 310.442
 71400, 324.303
 71460, 307.559
 71520, 315.942
 71580, 330.697
 71640, 333.624
 71700, 365.737
 71760, 349.623
 71820, 373.587
 71880, 354.150
 71940, 305.581
 72000, 300.938
 72060, 309.978
 72120, 317.594
 72180, 348.325
 72240, 351.576
 72300, 346.190
 72360, 346.581
 72420, 369.923
 72480, 364.296
 72540, -9999.000
 72600, 348.033
 72660, 349.867
 72720, 334.328
 72780, 313.349
 72840, 326.713
 72900, 348.932
 72960, 342.915
 73020, 324.686
 73080, 309.477
 73140, 341.457
 73200, 331.091
 73260, 328.537
 73320, 304.670
 73380, 326.843
 73440, 315.892
 73500, 317.403
 73560, 300.135
 73620, 290.227
 73680, 287.143
 73740, 283.222
 73800, 265.215
 73860, 300.867
 73920, 279.113
 73980, 287.914
 74040, 278.696
 74100, 281.505
 74160, 292.710
 74220, 310.997
 74280, 335.916
 74340, 341.670
 74400, 312.318
 74460, 336.390
 74520, 319.602
 74580, 290.365
 74640, 307.306
 74700, 337.935
 74760, 282.706
 74820, 294.107
 74880, 315.049
 74940, 316.286
 75000, 392.586
 75060, 332.507
 75120, 338.596
 75180, 347.140
 75240, 315.649
 75300, 330.553
 75360, 343.540
 75420, 345.173
 75480, 362.628
 75540, 431.775
 75600, 378.222
 75660, 361.665
 75720, 366.417
 75780, 378.802
 75840, 393.014
 75900, 402.701
 75960, 395.171
 76020, 411.354
 76080, 372.616
 76140, 382.801
 76200, 353.723
 76260, 331.170
 76320, 381.910
 76380, 372.497
 76440, 394.797
 76500, 414.034
 76560, 415.746
 76620, 440.245
 76680, 413.801
 76740, 415.064
 76800, 434.866
 76860, 438.485
 76920, 440.715
 76980, 450.875
 77040, 468.234
 77100, 460.518
 77160, 432.032
 77220, 443.682
 77280, 433.008
 77340, 417.829
 77400, 412.804
 77460, 390.611
 77520, 405.064
 77580, 416.002
 77640, 417.203
 77700, 412.998
 77760, 390.745
 77820, 402.493
 77880, 383.903
 77940, 378.957
 78000, 364.481
 78060, 412.750
 78120, 346.933
 78180, 355.007
 78240, 373.598
 78300, 377.250
 78360, 359.292
 78420, 384.653
 78480, 407.435
 78540, 412.238
 78600, 416.551
 78660, 393.223
 78720, 386.675
 78780, 430.846
 78840, 303.916
 78900, 317.292
 78960, 326.380
 79020, 363.075
 79080, 389.150
 79140, 359.239
 79200, 323.044
 79260, 310.420
 79320, 332.064
 79380, 336.352
 79440, 371.187
 79500, 366.971
 79560, 319.160
 79620, 333.962
 79680, 313.160
 79740, 376.642
 79800, 300.349
 79860, 298.671
 79920, -9999.000
 79980, 249.286
 80040, 330.579
 80100, 259.248
 80160, 261.663
 80220, 293.197
 80280, 310.179
 80340, 278.179
 80400, 302.824
 80460, 321.213
 80520, 352.248
 80580, 433.956
 80640, 353.898
 80700, 365.920
 80760, 359.840
 80820, 355.451
 80880, 425.549
 80940, 327.785
 81000, 357.056
 81060, 313.016
 81120, 298.567
 81180, 239.796
 81240, 301.640
 81300, 349.085
 81360, 355.793
 81420, 367.400
 81480, 351.972
 81540, 365.728
 81600, 334.951
 81660, 354.850
 81720, 394.648
 81780, 327.064
 81840, 335.628
 81900, 325.650
 81960, 331.715
 82020, 353.549
 82080, 303.629
 82140, 319.185
 82200, 261.090
 82260, 284.955
 82320, 291.326
 82380, 315.221
 82440, 319.185
 82500, 311.451
 82560, 336.397
 82620, 366.568
 82680, 364.324
 82740, 371.337
 82800, 383.335
 82860, 376.776
 82920, 445.920
 82980, 386.200
 83040, 286.980
 83100, 305.088
 83160, 287.888
 83220, 312.057
 83280, 297.210
 83340, 309.770
 83400, 324.154
 83460, 344.871
 83520, 324.045
 83580, 370.805
 83640, 293.208
 83700, 311.493
 83760, 348.693
 83820, 338.930
 83880, 346.516
 83940, 333.752
 84000, 358.402
 84060, 374.702
 84120, 325.366
 84180, 378.024
 84240, -9999.000
 84300, -9999.000
 84360, 334.444
 84420, 372.380
 84480, 347.406
 84540, 357.044
 84600, 430.375
 84660, 381.156
 84720, 349.338
 84780, 330.150
 84840, 342.104
 84900, 374.923
 84960, 362.573
 85020, 372.825
 85080, 383.558
 85140, 387.372
 85200, 356.364
 85260, 334.568
 85320, 311.707
 85380, 352.413
 85440, 329.005
 85500, 335.549
 85560, 376.431
 85620, 359.132
 85680, 372.980
 85740, 371.980
 85800, 362.287
 85860, 363.527
 85920, 380.451
 85980, 401.586
 86040, 370.614
 86100, 382.284
 86160, 395.292
 86220, 359.302
 86280, 348.324
 86340, 368.768
