33, 1001
Michael A Robinson, Chris Jernigan, Subi Thakali
NOAA ESRL Chemical Sciences Laboratory and CIRES, U. of Colorado
NOAA Iodide CIMS Instrument
USOS
1, 1
2024, 08, 09, 2024, 08, 10
1
starttime_UTC, seconds_past_midnight, seconds_of_day_since_00:00:00_UTC
1
1
-9999
N2O5_NOAACIMS, pptv, Gas_N2O5_InSitu_S_AVMR, 
0
18
PI_CONTACT_INFO: 325 Broadway, R/CSD 7, Boulder, Colorado 80305; michael.a.robinson@noaa.gov; chris.jernigan@noaa.gov;
PLATFORM: NOAA CSL Mobile Lab
LOCATION: SLC, Utah
ASSOCIATED_DATA: 1Hz data also available on request.
INSTRUMENT_INFO: NOAA I- ToF CIMS
DATA_INFO: All data in parts per trillion by volume (pptv). 1 Hz data is available upon request.
UNCERTAINTY: TBD
ULOD_FLAG: -7777
ULOD_VALUE: N/A
LLOD_FLAG: -8888
LLOD_VALUE: N/A
DM_CONTACT_INFO: Nathan Howard; nathan.h.howard@noaa.gov
PROJECT_INFO: USOS, summer 2024. https://csl.noaa.gov/groups/csl7/measurements/2024usos/
STIPULATIONS_ON_USE: Users are strongly encouraged to contact the PI for proper data usage.
OTHER_COMMENTS: 
REVISION: RA
RA: Preliminary Data; For in-field use only
starttime_UTC, N2O5_NOAACIMS
     0, -9999.000
    60, -9999.000
   120, -9999.000
   180, -9999.000
   240, -9999.000
   300, -9999.000
   360, -9999.000
   420, -9999.000
   480, -9999.000
   540, -9999.000
   600, -9999.000
   660, -9999.000
   720, -9999.000
   780, -9999.000
   840, -9999.000
   900, -9999.000
   960, -9999.000
  1020, -9999.000
  1080, -9999.000
  1140, -9999.000
  1200, -9999.000
  1260, -9999.000
  1320, -9999.000
  1380, -9999.000
  1440, -9999.000
  1500, -9999.000
  1560, -9999.000
  1620, -9999.000
  1680, -9999.000
  1740, -9999.000
  1800, -9999.000
  1860, -9999.000
  1920, -9999.000
  1980, -9999.000
  2040, -9999.000
  2100, -9999.000
  2160, -9999.000
  2220, -9999.000
  2280, -9999.000
  2340, -9999.000
  2400, -9999.000
  2460, -9999.000
  2520, -9999.000
  2580, -9999.000
  2640, -9999.000
  2700, -9999.000
  2760, -9999.000
  2820, -9999.000
  2880, -9999.000
  2940, -9999.000
  3000, -9999.000
  3060, -9999.000
  3120, -9999.000
  3180, -9999.000
  3240, -9999.000
  3300, -9999.000
  3360, -9999.000
  3420, -9999.000
  3480, -9999.000
  3540, -9999.000
  3600, -9999.000
  3660, -9999.000
  3720, -9999.000
  3780, -9999.000
  3840, -9999.000
  3900, -9999.000
  3960, -9999.000
  4020, -9999.000
  4080, -9999.000
  4140, -9999.000
  4200, -9999.000
  4260, -9999.000
  4320, -9999.000
  4380, -9999.000
  4440, -9999.000
  4500, -9999.000
  4560, -9999.000
  4620, -9999.000
  4680, -9999.000
  4740, -9999.000
  4800, -9999.000
  4860, -9999.000
  4920, -9999.000
  4980, -9999.000
  5040, -9999.000
  5100, -9999.000
  5160, -9999.000
  5220, -9999.000
  5280, -9999.000
  5340, -9999.000
  5400, -9999.000
  5460, -9999.000
  5520, -9999.000
  5580, -9999.000
  5640, -9999.000
  5700, -9999.000
  5760, -9999.000
  5820, -9999.000
  5880, -9999.000
  5940, -9999.000
  6000, -9999.000
  6060, -9999.000
  6120, -9999.000
  6180, -9999.000
  6240, -9999.000
  6300, -9999.000
  6360, -9999.000
  6420, -9999.000
  6480, -9999.000
  6540, -9999.000
  6600, -9999.000
  6660, -9999.000
  6720, -9999.000
  6780, -9999.000
  6840, -9999.000
  6900, -9999.000
  6960, -9999.000
  7020, -9999.000
  7080, -9999.000
  7140, -9999.000
  7200, -9999.000
  7260, -9999.000
  7320, -9999.000
  7380, -9999.000
  7440, -9999.000
  7500, -9999.000
  7560, -9999.000
  7620, -9999.000
  7680, -9999.000
  7740, -9999.000
  7800, -9999.000
  7860, -9999.000
  7920, -9999.000
  7980, -9999.000
  8040, -9999.000
  8100, -9999.000
  8160, -9999.000
  8220, -9999.000
  8280, -9999.000
  8340, -9999.000
  8400, -9999.000
  8460, -9999.000
  8520, -9999.000
  8580,  9.592
  8640, 14.727
  8700, 10.192
  8760, 11.262
  8820, 12.098
  8880, 11.446
  8940,  7.122
  9000,  4.405
  9060,  2.702
  9120,  1.726
  9180,  2.192
  9240,  3.272
  9300,  1.965
  9360,  3.341
  9420,  2.420
  9480,  3.444
  9540,  3.460
  9600,  3.398
  9660,  3.172
  9720,  1.724
  9780,  1.200
  9840,  1.634
  9900,  1.299
  9960,  1.457
 10020,  1.380
 10080,  0.996
 10140,  1.141
 10200,  0.742
 10260,  0.541
 10320,  0.810
 10380,  0.825
 10440,  0.793
 10500,  0.679
 10560,  0.538
 10620,  0.690
 10680,  0.519
 10740,  0.646
 10800,  0.378
 10860,  0.585
 10920,  0.581
 10980,  0.925
 11040,  0.723
 11100,  0.447
 11160, -9999.000
 11220,  1.193
 11280,  1.274
 11340,  2.052
 11400,  2.079
 11460,  2.054
 11520,  2.022
 11580,  1.483
 11640,  1.118
 11700,  1.419
 11760,  1.150
 11820,  1.111
 11880,  1.073
 11940,  1.058
 12000,  0.889
 12060,  0.697
 12120,  0.755
 12180,  1.357
 12240,  1.247
 12300,  1.422
 12360,  0.648
 12420,  0.790
 12480,  0.943
 12540,  0.976
 12600,  0.630
 12660,  1.299
 12720,  2.059
 12780,  1.694
 12840,  1.447
 12900,  1.029
 12960,  1.191
 13020,  1.075
 13080,  0.884
 13140,  1.181
 13200,  1.098
 13260,  1.714
 13320,  2.090
 13380,  2.877
 13440,  3.391
 13500,  4.219
 13560,  3.465
 13620,  1.968
 13680,  2.254
 13740,  2.752
 13800,  1.678
 13860,  1.708
 13920,  1.617
 13980,  2.381
 14040,  2.819
 14100,  2.337
 14160,  1.977
 14220,  1.761
 14280,  1.692
 14340,  1.596
 14400,  2.140
 14460,  2.515
 14520,  1.875
 14580,  1.747
 14640,  1.713
 14700,  1.566
 14760,  1.110
 14820, -9999.000
 14880,  0.968
 14940,  0.953
 15000,  1.698
 15060,  0.930
 15120,  1.159
 15180,  1.039
 15240,  1.183
 15300,  1.263
 15360,  1.334
 15420,  1.565
 15480,  1.809
 15540,  1.373
 15600,  2.474
 15660,  1.802
 15720,  3.359
 15780,  2.906
 15840,  3.460
 15900,  2.160
 15960,  2.166
 16020,  1.751
 16080,  1.764
 16140,  2.967
 16200,  3.195
 16260,  1.899
 16320,  1.300
 16380,  2.936
 16440,  2.896
 16500,  3.321
 16560,  2.698
 16620,  2.770
 16680, -9999.000
 16740,  3.160
 16800,  3.472
 16860,  4.072
 16920,  3.702
 16980,  3.931
 17040,  5.460
 17100,  9.386
 17160,  9.036
 17220, 13.039
 17280, 14.107
 17340, 11.279
 17400, 11.694
 17460, 10.752
 17520,  9.930
 17580, 10.706
 17640,  9.587
 17700,  6.778
 17760,  1.757
 17820,  3.081
 17880,  3.316
 17940,  3.651
 18000,  3.872
 18060,  3.345
 18120,  4.576
 18180,  5.076
 18240,  4.261
 18300,  4.317
 18360,  3.906
 18420,  4.452
 18480,  4.012
 18540, -9999.000
 18600,  3.288
 18660,  8.976
 18720, 17.492
 18780, 20.763
 18840, 15.797
 18900, 20.262
 18960, 21.397
 19020, 21.186
 19080, 16.158
 19140,  5.718
 19200,  9.695
 19260, 14.055
 19320, 14.702
 19380, 11.596
 19440,  7.256
 19500, 11.213
 19560,  9.480
 19620,  8.330
 19680,  7.790
 19740,  9.826
 19800,  8.310
 19860, 10.483
 19920, 12.785
 19980,  9.710
 20040,  9.955
 20100,  8.925
 20160, 11.301
 20220, 11.693
 20280,  8.453
 20340, 10.424
 20400, 10.967
 20460, 12.035
 20520, 13.190
 20580, 15.609
 20640, 15.359
 20700, 13.581
 20760, 15.038
 20820, 12.035
 20880, 14.618
 20940, 13.017
 21000, 12.348
 21060, 10.277
 21120,  9.493
 21180,  9.775
 21240, 11.812
 21300, 11.974
 21360, 11.362
 21420, 10.607
 21480,  8.283
 21540,  8.205
 21600,  6.699
 21660,  7.932
 21720,  8.972
 21780, 10.919
 21840, 17.036
 21900, 26.217
 21960, 30.162
 22020, 22.110
 22080, 10.128
 22140,  7.571
 22200,  7.636
 22260,  5.199
 22320,  5.636
 22380,  5.544
 22440,  5.407
 22500,  6.209
 22560,  5.974
 22620,  5.519
 22680,  5.671
 22740,  6.176
 22800, 10.887
 22860, 10.884
 22920,  8.350
 22980,  5.815
 23040,  7.638
 23100,  7.127
 23160,  4.776
 23220,  8.495
 23280,  9.294
 23340, 10.786
 23400, 10.743
 23460,  9.932
 23520,  9.626
 23580,  6.538
 23640,  6.730
 23700,  7.088
 23760,  6.607
 23820,  4.945
 23880,  4.043
 23940,  4.467
 24000,  5.904
 24060,  5.756
 24120,  6.189
 24180,  6.387
 24240,  6.127
 24300,  5.735
 24360,  6.205
 24420,  5.566
 24480,  4.257
 24540,  5.144
 24600,  5.109
 24660,  5.253
 24720,  5.627
 24780,  4.134
 24840,  3.778
 24900,  5.768
 24960,  4.363
 25020,  3.851
 25080,  4.972
 25140,  3.924
 25200,  4.470
 25260,  4.696
 25320,  4.332
 25380,  5.003
 25440,  4.973
 25500,  4.856
 25560,  4.705
 25620,  5.323
 25680,  6.005
 25740,  5.192
 25800,  4.895
 25860,  4.840
 25920, -9999.000
 25980,  4.811
 26040,  4.611
 26100,  3.517
 26160,  4.391
 26220,  4.109
 26280,  4.505
 26340,  5.019
 26400,  4.439
 26460,  4.108
 26520,  4.305
 26580,  3.847
 26640,  4.219
 26700,  4.071
 26760,  4.408
 26820,  4.552
 26880,  3.857
 26940,  3.835
 27000,  4.234
 27060,  4.197
 27120,  4.265
 27180,  4.048
 27240,  4.486
 27300,  4.356
 27360,  5.328
 27420,  5.811
 27480,  5.886
 27540,  5.191
 27600,  5.275
 27660,  4.573
 27720,  4.615
 27780,  7.402
 27840,  5.903
 27900,  6.539
 27960,  6.149
 28020,  6.055
 28080,  5.465
 28140,  4.752
 28200,  5.242
 28260,  4.471
 28320,  4.501
 28380,  4.130
 28440,  4.351
 28500,  4.324
 28560,  3.702
 28620,  4.002
 28680,  4.532
 28740,  4.496
 28800,  4.538
 28860,  4.270
 28920,  3.579
 28980,  3.921
 29040,  3.993
 29100,  3.730
 29160,  4.182
 29220,  5.033
 29280,  3.885
 29340,  3.772
 29400,  4.008
 29460,  3.534
 29520,  4.153
 29580,  4.603
 29640, -9999.000
 29700,  4.600
 29760,  4.408
 29820,  4.459
 29880,  4.397
 29940,  4.950
 30000,  6.534
 30060,  6.546
 30120,  6.966
 30180,  6.135
 30240,  5.073
 30300,  6.010
 30360,  5.195
 30420,  4.343
 30480,  4.521
 30540,  4.100
 30600,  4.446
 30660,  4.631
 30720,  4.818
 30780,  4.665
 30840,  4.674
 30900,  4.446
 30960,  4.767
 31020,  4.732
 31080,  3.823
 31140,  4.115
 31200,  4.488
 31260,  4.822
 31320,  4.567
 31380,  5.448
 31440,  5.484
 31500,  4.121
 31560,  4.411
 31620,  4.023
 31680,  3.771
 31740,  4.016
 31800,  3.968
 31860,  3.774
 31920,  3.772
 31980,  3.674
 32040,  3.350
 32100,  3.632
 32160,  3.504
 32220,  2.970
 32280,  3.638
 32340,  3.483
 32400,  3.673
 32460,  3.881
 32520,  4.482
 32580,  4.709
 32640,  3.431
 32700,  3.302
 32760,  4.474
 32820,  5.444
 32880,  5.188
 32940,  4.519
 33000,  4.360
 33060,  4.028
 33120,  5.016
 33180,  4.157
 33240,  5.717
 33300, -9999.000
 33360,  2.540
 33420,  3.084
 33480,  4.549
 33540,  4.513
 33600,  4.112
 33660,  4.598
 33720,  4.497
 33780,  6.954
 33840,  4.819
 33900,  6.255
 33960,  5.870
 34020,  4.980
 34080,  4.518
 34140,  4.786
 34200,  5.670
 34260,  6.121
 34320,  6.714
 34380,  5.086
 34440,  4.713
 34500,  5.101
 34560,  4.684
 34620,  4.854
 34680,  4.368
 34740,  4.461
 34800,  4.594
 34860,  6.877
 34920,  5.957
 34980,  4.852
 35040,  4.516
 35100,  5.455
 35160, -9999.000
 35220,  6.479
 35280,  5.417
 35340,  4.827
 35400,  5.410
 35460,  6.000
 35520,  5.166
 35580,  5.708
 35640,  6.042
 35700,  8.275
 35760, 11.756
 35820, 11.261
 35880, 11.131
 35940, 11.743
 36000,  8.082
 36060,  6.543
 36120,  7.013
 36180,  6.817
 36240,  6.936
 36300,  6.159
 36360,  6.104
 36420,  6.488
 36480,  6.160
 36540,  4.438
 36600,  4.195
 36660,  4.148
 36720,  4.192
 36780,  4.551
 36840,  6.031
 36900,  6.965
 36960,  6.115
 37020, -9999.000
 37080,  4.577
 37140,  3.913
 37200,  4.152
 37260,  3.822
 37320,  3.949
 37380,  3.849
 37440,  4.128
 37500,  4.227
 37560,  4.048
 37620,  4.235
 37680,  4.222
 37740,  4.336
 37800,  4.082
 37860,  3.894
 37920,  3.470
 37980,  2.519
 38040,  3.935
 38100,  3.918
 38160,  4.704
 38220,  5.095
 38280,  6.149
 38340,  7.576
 38400, 11.921
 38460, 10.583
 38520, 10.195
 38580,  9.177
 38640,  9.288
 38700,  7.517
 38760,  7.260
 38820,  7.329
 38880,  5.677
 38940,  5.346
 39000,  7.196
 39060,  6.933
 39120,  6.860
 39180,  8.395
 39240, 12.041
 39300, 11.805
 39360, 11.848
 39420, 12.371
 39480, 10.923
 39540,  7.018
 39600,  8.168
 39660,  8.768
 39720, 11.531
 39780, 11.497
 39840, 11.063
 39900, 12.824
 39960, 11.884
 40020, 12.992
 40080,  9.773
 40140,  6.677
 40200,  7.187
 40260,  5.005
 40320,  7.553
 40380,  7.702
 40440,  4.207
 40500,  4.650
 40560,  8.518
 40620,  8.395
 40680, -9999.000
 40740,  4.537
 40800,  4.198
 40860,  2.925
 40920,  4.312
 40980,  3.290
 41040,  3.427
 41100,  3.997
 41160,  4.674
 41220,  3.880
 41280,  4.935
 41340,  5.255
 41400,  5.035
 41460,  4.438
 41520,  4.724
 41580,  5.361
 41640,  7.250
 41700, 10.310
 41760, 10.526
 41820, 11.109
 41880, 11.769
 41940,  8.647
 42000,  6.748
 42060,  8.789
 42120,  8.422
 42180,  5.613
 42240,  5.721
 42300,  5.062
 42360,  7.011
 42420,  8.854
 42480, 10.347
 42540, 11.215
 42600, 10.402
 42660,  9.994
 42720, 10.181
 42780,  7.864
 42840,  8.863
 42900,  9.495
 42960,  9.367
 43020,  7.104
 43080,  4.766
 43140,  5.438
 43200,  4.910
 43260,  4.867
 43320,  5.491
 43380,  4.649
 43440,  3.844
 43500,  5.483
 43560,  7.394
 43620,  5.299
 43680,  7.098
 43740, 15.307
 43800,  9.759
 43860, 10.585
 43920, 11.524
 43980, 13.078
 44040,  8.996
 44100, 11.826
 44160,  5.131
 44220,  6.136
 44280,  6.874
 44340,  9.041
 44400, -9999.000
 44460,  8.009
 44520,  8.775
 44580,  7.347
 44640, 16.403
 44700, 22.442
 44760, 12.078
 44820, 34.175
 44880, 14.708
 44940,  8.754
 45000,  7.094
 45060, 10.532
 45120,  6.977
 45180,  7.822
 45240,  9.855
 45300, 13.017
 45360, 11.029
 45420, 15.882
 45480, 14.875
 45540, 12.151
 45600, 11.144
 45660, 14.933
 45720, 12.096
 45780,  5.963
 45840,  7.658
 45900,  7.927
 45960,  7.797
 46020,  5.637
 46080,  5.677
 46140,  5.602
 46200,  4.265
 46260,  3.413
 46320,  4.276
 46380,  4.500
 46440,  3.459
 46500,  3.492
 46560,  3.763
 46620,  3.611
 46680,  4.125
 46740,  4.417
 46800,  4.117
 46860, -9999.000
 46920, -9999.000
 46980, -9999.000
 47040, -9999.000
 47100, -9999.000
 47160, -9999.000
 47220, -9999.000
 47280, -9999.000
 47340, -9999.000
 47400, -9999.000
 47460, -9999.000
 47520, -9999.000
 47580, -9999.000
 47640, -9999.000
 47700, -9999.000
 47760, -9999.000
 47820, -9999.000
 47880, -9999.000
 47940, -9999.000
 48000, -9999.000
 48060, -9999.000
 48120, -9999.000
 48180, -9999.000
 48240, -9999.000
 48300, -9999.000
 48360, -9999.000
 48420, -9999.000
 48480, -9999.000
 48540, -9999.000
 48600, -9999.000
 48660, -9999.000
 48720, -9999.000
 48780, -9999.000
 48840, -9999.000
 48900, -9999.000
 48960, -9999.000
 49020, -9999.000
 49080, -9999.000
 49140, -9999.000
 49200, -9999.000
 49260, -9999.000
 49320, -9999.000
 49380, -9999.000
 49440, -9999.000
 49500, -9999.000
 49560, -9999.000
 49620, -9999.000
 49680, -9999.000
 49740, -9999.000
 49800, -9999.000
 49860, -9999.000
 49920, -9999.000
 49980, -9999.000
 50040, -9999.000
 50100, -9999.000
 50160, -9999.000
 50220, -9999.000
 50280, -9999.000
 50340, -9999.000
 50400, -9999.000
 50460, -9999.000
 50520, -9999.000
 50580, -9999.000
 50640, -9999.000
 50700, -9999.000
 50760, -9999.000
 50820, -9999.000
 50880, -9999.000
 50940, -9999.000
 51000, -9999.000
 51060, -9999.000
 51120, -9999.000
 51180, -9999.000
 51240, -9999.000
 51300, -9999.000
 51360, -9999.000
 51420, -9999.000
 51480, -9999.000
 51540, -9999.000
 51600, -9999.000
 51660, -9999.000
 51720, -9999.000
 51780, -9999.000
 51840, -9999.000
 51900, -9999.000
 51960, -9999.000
 52020, -9999.000
 52080, -9999.000
 52140, -9999.000
 52200, -9999.000
 52260, -9999.000
 52320, -9999.000
 52380, -9999.000
 52440, -9999.000
 52500, -9999.000
 52560, -9999.000
 52620, -9999.000
 52680, -9999.000
 52740, -9999.000
 52800, -9999.000
 52860, -9999.000
 52920, -9999.000
 52980, -9999.000
 53040, -9999.000
 53100, -9999.000
 53160, -9999.000
 53220, -9999.000
 53280, -9999.000
 53340, -9999.000
 53400, -9999.000
 53460, -9999.000
 53520, -9999.000
 53580, -9999.000
 53640, -9999.000
 53700, -9999.000
 53760, -9999.000
 53820, -9999.000
 53880, -9999.000
 53940, -9999.000
 54000, -9999.000
 54060, -9999.000
 54120, -9999.000
 54180, -9999.000
 54240, -9999.000
 54300, -9999.000
 54360, -9999.000
 54420, -9999.000
 54480, -9999.000
 54540, -9999.000
 54600, -9999.000
 54660, -9999.000
 54720, -9999.000
 54780, -9999.000
 54840, -9999.000
 54900, -9999.000
 54960, -9999.000
 55020, -9999.000
 55080, -9999.000
 55140, -9999.000
 55200, -9999.000
 55260, -9999.000
 55320, -9999.000
 55380, -9999.000
 55440, -9999.000
 55500, -9999.000
 55560, -9999.000
 55620, -9999.000
 55680, -9999.000
 55740, -9999.000
 55800, -9999.000
 55860, -9999.000
 55920, -9999.000
 55980, -9999.000
 56040, -9999.000
 56100, -9999.000
 56160, -9999.000
 56220, -9999.000
 56280, -9999.000
 56340, -9999.000
 56400, -9999.000
 56460, -9999.000
 56520, -9999.000
 56580, -9999.000
 56640, -9999.000
 56700, -9999.000
 56760, -9999.000
 56820, -9999.000
 56880, -9999.000
 56940, -9999.000
 57000, -9999.000
 57060, -9999.000
 57120, -9999.000
 57180, -9999.000
 57240, -9999.000
 57300, -9999.000
 57360, -9999.000
 57420, -9999.000
 57480, -9999.000
 57540, -9999.000
 57600, -9999.000
 57660, -9999.000
 57720, -9999.000
 57780, -9999.000
 57840, -9999.000
 57900, -9999.000
 57960, -9999.000
 58020, -9999.000
 58080, -9999.000
 58140, -9999.000
 58200, -9999.000
 58260, -9999.000
 58320, -9999.000
 58380, -9999.000
 58440, -9999.000
 58500, -9999.000
 58560, -9999.000
 58620, -9999.000
 58680, -9999.000
 58740, -9999.000
 58800, -9999.000
 58860, -9999.000
 58920, -9999.000
 58980, -9999.000
 59040, -9999.000
 59100, -9999.000
 59160, -9999.000
 59220, -9999.000
 59280, -9999.000
 59340, -9999.000
 59400, -9999.000
 59460, -9999.000
 59520, -9999.000
 59580, -9999.000
 59640, -9999.000
 59700, -9999.000
 59760, -9999.000
 59820, -9999.000
 59880, -9999.000
 59940, -9999.000
 60000, -9999.000
 60060, -9999.000
 60120, -9999.000
 60180, -9999.000
 60240, -9999.000
 60300, -9999.000
 60360, -9999.000
 60420, -9999.000
 60480, -9999.000
 60540, -9999.000
 60600, -9999.000
 60660, -9999.000
 60720, -9999.000
 60780, -9999.000
 60840, -9999.000
 60900, -9999.000
 60960, -9999.000
 61020, -9999.000
 61080, -9999.000
 61140, -9999.000
 61200, -9999.000
 61260, -9999.000
 61320, -9999.000
 61380, -9999.000
 61440, -9999.000
 61500, -9999.000
 61560, -9999.000
 61620, -9999.000
 61680, -9999.000
 61740, -9999.000
 61800, -9999.000
 61860, -9999.000
 61920, -9999.000
 61980, -9999.000
 62040, -9999.000
 62100, -9999.000
 62160, -9999.000
 62220, -9999.000
 62280, -9999.000
 62340, -9999.000
 62400, -9999.000
 62460, -9999.000
 62520, -9999.000
 62580, -9999.000
 62640, -9999.000
 62700, -9999.000
 62760, -9999.000
 62820, -9999.000
 62880, -9999.000
 62940, -9999.000
 63000, -9999.000
 63060, -9999.000
 63120, -9999.000
 63180, -9999.000
 63240, -9999.000
 63300, -9999.000
 63360, -9999.000
 63420, -9999.000
 63480, -9999.000
 63540, -9999.000
 63600, -9999.000
 63660, -9999.000
 63720, -9999.000
 63780, -9999.000
 63840, -9999.000
 63900, -9999.000
 63960, -9999.000
 64020, -9999.000
 64080, -9999.000
 64140, -9999.000
 64200, -9999.000
 64260, -9999.000
 64320, -9999.000
 64380, -9999.000
 64440, -9999.000
 64500, -9999.000
 64560, -9999.000
 64620, -9999.000
 64680, -9999.000
 64740, -9999.000
 64800, -9999.000
 64860, -9999.000
 64920, -9999.000
 64980, -9999.000
 65040, -9999.000
 65100, -9999.000
 65160, -9999.000
 65220, -9999.000
 65280, -9999.000
 65340, -9999.000
 65400, -9999.000
 65460, -9999.000
 65520, -9999.000
 65580, -9999.000
 65640, -9999.000
 65700, -9999.000
 65760, -9999.000
 65820, -9999.000
 65880, -9999.000
 65940, -9999.000
 66000, -9999.000
 66060, -9999.000
 66120, -9999.000
 66180, -9999.000
 66240, -9999.000
 66300, -9999.000
 66360, -9999.000
 66420, -9999.000
 66480, -9999.000
 66540, -9999.000
 66600, -9999.000
 66660, -9999.000
 66720, -9999.000
 66780, -9999.000
 66840, -9999.000
 66900, -9999.000
 66960, -9999.000
 67020, -9999.000
 67080, -9999.000
 67140, -9999.000
 67200, -9999.000
 67260, -9999.000
 67320, -9999.000
 67380, -9999.000
 67440, -9999.000
 67500, -9999.000
 67560, -9999.000
 67620, -9999.000
 67680, -9999.000
 67740, -9999.000
 67800, -9999.000
 67860, -9999.000
 67920, -9999.000
 67980, -9999.000
 68040, -9999.000
 68100, -9999.000
 68160, -9999.000
 68220, -9999.000
 68280, -9999.000
 68340, -9999.000
 68400, -9999.000
 68460, -9999.000
 68520, -9999.000
 68580, -9999.000
 68640, -9999.000
 68700, -9999.000
 68760, -9999.000
 68820, -9999.000
 68880, -9999.000
 68940, -9999.000
 69000, -9999.000
 69060, -9999.000
 69120, -9999.000
 69180, -9999.000
 69240, -9999.000
 69300, -9999.000
 69360, -9999.000
 69420, -9999.000
 69480, -9999.000
 69540, -9999.000
 69600, -9999.000
 69660, -9999.000
 69720, -9999.000
 69780, -9999.000
 69840, -9999.000
 69900, -9999.000
 69960, -9999.000
 70020, -9999.000
 70080, -9999.000
 70140, -9999.000
 70200, -9999.000
 70260, -9999.000
 70320, -9999.000
 70380, -9999.000
 70440, -9999.000
 70500, -9999.000
 70560, -9999.000
 70620, -9999.000
 70680, -9999.000
 70740, -9999.000
 70800, -9999.000
 70860, -9999.000
 70920, -9999.000
 70980, -9999.000
 71040, -9999.000
 71100, -9999.000
 71160, -9999.000
 71220, -9999.000
 71280, -9999.000
 71340, -9999.000
 71400, -9999.000
 71460, -9999.000
 71520, -9999.000
 71580, -9999.000
 71640, -9999.000
 71700, -9999.000
 71760, -9999.000
 71820, -9999.000
 71880, -9999.000
 71940, -9999.000
 72000, -9999.000
 72060, -9999.000
 72120, -9999.000
 72180, -9999.000
 72240, -9999.000
 72300, -9999.000
 72360, -9999.000
 72420, -9999.000
 72480, -9999.000
 72540, -9999.000
 72600, -9999.000
 72660, -9999.000
 72720, -9999.000
 72780, -9999.000
 72840, -9999.000
 72900, -9999.000
 72960, -9999.000
 73020, -9999.000
 73080, -9999.000
 73140, -9999.000
 73200, -9999.000
 73260, -9999.000
 73320, -9999.000
 73380, -9999.000
 73440, -9999.000
 73500, -9999.000
 73560, -9999.000
 73620, -9999.000
 73680, -9999.000
 73740, -9999.000
 73800, -9999.000
 73860, -9999.000
 73920, -9999.000
 73980, -9999.000
 74040, -9999.000
 74100, -9999.000
 74160, -9999.000
 74220, -9999.000
 74280, -9999.000
 74340, -9999.000
 74400, -9999.000
 74460, -9999.000
 74520, -9999.000
 74580, -9999.000
 74640, -9999.000
 74700, -9999.000
 74760, -9999.000
 74820, -9999.000
 74880, -9999.000
 74940, -9999.000
 75000, -9999.000
 75060, -9999.000
 75120, -9999.000
 75180, -9999.000
 75240, -9999.000
 75300, -9999.000
 75360, -9999.000
 75420, -9999.000
 75480, -9999.000
 75540, -9999.000
 75600, -9999.000
 75660, -9999.000
 75720, -9999.000
 75780, -9999.000
 75840, -9999.000
 75900, -9999.000
 75960, -9999.000
 76020, -9999.000
 76080, -9999.000
 76140, -9999.000
 76200, -9999.000
 76260, -9999.000
 76320, -9999.000
 76380, -9999.000
 76440, -9999.000
 76500, -9999.000
 76560, -9999.000
 76620, -9999.000
 76680, -9999.000
 76740, -9999.000
 76800, -9999.000
 76860, -9999.000
 76920, -9999.000
 76980, -9999.000
 77040, -9999.000
 77100, -9999.000
 77160, -9999.000
 77220, -9999.000
 77280, -9999.000
 77340, -9999.000
 77400, -9999.000
 77460, -9999.000
 77520, -9999.000
 77580, -9999.000
 77640, -9999.000
 77700, -9999.000
 77760, -9999.000
 77820, -9999.000
 77880, -9999.000
 77940, -9999.000
 78000, -9999.000
 78060, -9999.000
 78120, -9999.000
 78180, -9999.000
 78240, -9999.000
 78300, -9999.000
 78360, -9999.000
 78420, -9999.000
 78480, -9999.000
 78540, -9999.000
 78600, -9999.000
 78660, -9999.000
 78720, -9999.000
 78780, -9999.000
 78840, -9999.000
 78900, -9999.000
 78960, -9999.000
 79020, -9999.000
 79080, -9999.000
 79140, -9999.000
 79200, -9999.000
 79260, -9999.000
 79320, -9999.000
 79380, -9999.000
 79440, -9999.000
 79500, -9999.000
 79560, -9999.000
 79620, -9999.000
 79680, -9999.000
 79740, -9999.000
 79800, -9999.000
 79860, -9999.000
 79920, -9999.000
 79980, -9999.000
 80040, -9999.000
 80100, -9999.000
 80160, -9999.000
 80220, -9999.000
 80280, -9999.000
 80340, -9999.000
 80400, -9999.000
 80460, -9999.000
 80520, -9999.000
 80580, -9999.000
 80640, -9999.000
 80700, -9999.000
 80760, -9999.000
 80820, -9999.000
 80880, -9999.000
 80940, -9999.000
 81000, -9999.000
 81060, -9999.000
 81120, -9999.000
 81180, -9999.000
 81240, -9999.000
 81300, -9999.000
 81360, -9999.000
 81420, -9999.000
 81480, -9999.000
 81540, -9999.000
 81600, -9999.000
 81660, -9999.000
 81720, -9999.000
 81780, -9999.000
 81840, -9999.000
 81900, -9999.000
 81960, -9999.000
 82020, -9999.000
 82080, -9999.000
 82140, -9999.000
 82200, -9999.000
 82260, -9999.000
 82320, -9999.000
 82380, -9999.000
 82440, -9999.000
 82500, -9999.000
 82560, -9999.000
 82620, -9999.000
 82680, -9999.000
 82740, -9999.000
 82800, -9999.000
 82860, -9999.000
 82920, -9999.000
 82980, -9999.000
 83040, -9999.000
 83100, -9999.000
 83160, -9999.000
 83220, -9999.000
 83280, -9999.000
 83340, -9999.000
 83400, -9999.000
 83460, -9999.000
 83520, -9999.000
 83580, -9999.000
 83640, -9999.000
 83700, -9999.000
 83760, -9999.000
 83820, -9999.000
 83880, -9999.000
 83940, -9999.000
 84000, -9999.000
 84060, -9999.000
 84120, -9999.000
 84180, -9999.000
 84240, -9999.000
 84300, -9999.000
 84360, -9999.000
 84420, -9999.000
 84480, -9999.000
 84540, -9999.000
 84600, -9999.000
 84660, -9999.000
 84720, -9999.000
 84780, -9999.000
 84840, -9999.000
 84900, -9999.000
 84960, -9999.000
 85020, -9999.000
 85080, -9999.000
 85140, -9999.000
 85200, -9999.000
 85260, -9999.000
 85320, -9999.000
 85380, -9999.000
 85440, -9999.000
 85500, -9999.000
 85560, -9999.000
 85620, -9999.000
 85680, -9999.000
 85740, -9999.000
 85800, -9999.000
 85860, -9999.000
 85920, -9999.000
 85980, -9999.000
 86040, -9999.000
 86100, -9999.000
 86160, -9999.000
 86220, -9999.000
 86280, -9999.000
 86340, -9999.000
