33, 1001
Michael A Robinson, Chris Jernigan, Subi Thakali
NOAA ESRL Chemical Sciences Laboratory and CIRES, U. of Colorado
NOAA Iodide CIMS Instrument
USOS
1, 1
2024, 08, 08, 2024, 08, 09
1
starttime_UTC, seconds_past_midnight, seconds_of_day_since_00:00:00_UTC
1
1
-9999
N2O5_NOAACIMS, pptv, Gas_N2O5_InSitu_S_AVMR, 
0
18
PI_CONTACT_INFO: 325 Broadway, R/CSD 7, Boulder, Colorado 80305; michael.a.robinson@noaa.gov; chris.jernigan@noaa.gov;
PLATFORM: NOAA CSL Mobile Lab
LOCATION: SLC, Utah
ASSOCIATED_DATA: 1Hz data also available on request.
INSTRUMENT_INFO: NOAA I- ToF CIMS
DATA_INFO: All data in parts per trillion by volume (pptv). 1 Hz data is available upon request.
UNCERTAINTY: TBD
ULOD_FLAG: -7777
ULOD_VALUE: N/A
LLOD_FLAG: -8888
LLOD_VALUE: N/A
DM_CONTACT_INFO: Nathan Howard; nathan.h.howard@noaa.gov
PROJECT_INFO: USOS, summer 2024. https://csl.noaa.gov/groups/csl7/measurements/2024usos/
STIPULATIONS_ON_USE: Users are strongly encouraged to contact the PI for proper data usage.
OTHER_COMMENTS: 
REVISION: RA
RA: Preliminary Data; For in-field use only
starttime_UTC, N2O5_NOAACIMS
     0, -9999.000
    60, -9999.000
   120, -9999.000
   180, -9999.000
   240, -9999.000
   300, -9999.000
   360, -9999.000
   420, -9999.000
   480, -9999.000
   540, -9999.000
   600, -9999.000
   660, -9999.000
   720, -9999.000
   780, -9999.000
   840, -9999.000
   900, -9999.000
   960, -9999.000
  1020, -9999.000
  1080, -9999.000
  1140, -9999.000
  1200, -9999.000
  1260, -9999.000
  1320, -9999.000
  1380, -9999.000
  1440, -9999.000
  1500, -9999.000
  1560, -9999.000
  1620, -9999.000
  1680, -9999.000
  1740, -9999.000
  1800, -9999.000
  1860, -9999.000
  1920, -9999.000
  1980, -9999.000
  2040, -9999.000
  2100, -9999.000
  2160, -9999.000
  2220, -9999.000
  2280, -9999.000
  2340, -9999.000
  2400, -9999.000
  2460, -9999.000
  2520, -9999.000
  2580, -9999.000
  2640, -9999.000
  2700, -9999.000
  2760, -9999.000
  2820, -9999.000
  2880, -9999.000
  2940, -9999.000
  3000, -9999.000
  3060, -9999.000
  3120, -9999.000
  3180, -9999.000
  3240, -9999.000
  3300, -9999.000
  3360, -9999.000
  3420, -9999.000
  3480, -9999.000
  3540, -9999.000
  3600, -9999.000
  3660, -9999.000
  3720, -9999.000
  3780, -9999.000
  3840, -9999.000
  3900, -9999.000
  3960, -9999.000
  4020, -9999.000
  4080, -9999.000
  4140, -9999.000
  4200, -9999.000
  4260, -9999.000
  4320, -9999.000
  4380, -9999.000
  4440, -9999.000
  4500, -9999.000
  4560, -9999.000
  4620, -9999.000
  4680, -9999.000
  4740, -9999.000
  4800, -9999.000
  4860, -9999.000
  4920, -9999.000
  4980, -9999.000
  5040, -9999.000
  5100, -9999.000
  5160, -9999.000
  5220, -9999.000
  5280, -9999.000
  5340, -9999.000
  5400, -9999.000
  5460, -9999.000
  5520, -9999.000
  5580, -9999.000
  5640, -9999.000
  5700, -9999.000
  5760, -9999.000
  5820, -9999.000
  5880, -9999.000
  5940, -9999.000
  6000, -9999.000
  6060, -9999.000
  6120, -9999.000
  6180, -9999.000
  6240, -9999.000
  6300, -9999.000
  6360, -9999.000
  6420, -9999.000
  6480, -9999.000
  6540, -9999.000
  6600, -9999.000
  6660, -9999.000
  6720, -9999.000
  6780, -9999.000
  6840, -9999.000
  6900, -9999.000
  6960, -9999.000
  7020, -9999.000
  7080, -9999.000
  7140, -9999.000
  7200, -9999.000
  7260, -9999.000
  7320, -9999.000
  7380, -9999.000
  7440, -9999.000
  7500, -9999.000
  7560, -9999.000
  7620, -9999.000
  7680, -9999.000
  7740, -9999.000
  7800, -9999.000
  7860, -9999.000
  7920, -9999.000
  7980, -9999.000
  8040, -9999.000
  8100, -9999.000
  8160, -9999.000
  8220, -9999.000
  8280, -9999.000
  8340, -9999.000
  8400, -9999.000
  8460, -9999.000
  8520, -9999.000
  8580, -9999.000
  8640, -9999.000
  8700, -9999.000
  8760, -9999.000
  8820, -9999.000
  8880, -9999.000
  8940, -9999.000
  9000, -9999.000
  9060, -9999.000
  9120, -9999.000
  9180, -9999.000
  9240, -9999.000
  9300, -9999.000
  9360, -9999.000
  9420, -9999.000
  9480, -9999.000
  9540, -9999.000
  9600, -9999.000
  9660, -9999.000
  9720, -9999.000
  9780, -9999.000
  9840, -9999.000
  9900, -9999.000
  9960,  0.871
 10020,  0.998
 10080,  0.897
 10140,  1.022
 10200,  1.008
 10260,  1.159
 10320,  1.365
 10380,  1.530
 10440,  1.440
 10500,  1.243
 10560,  1.309
 10620,  1.000
 10680,  1.012
 10740,  1.155
 10800,  1.202
 10860,  1.546
 10920, -9999.000
 10980,  1.781
 11040,  1.859
 11100,  1.694
 11160,  1.584
 11220,  1.809
 11280,  1.830
 11340,  1.542
 11400,  1.725
 11460,  1.513
 11520,  1.253
 11580,  1.207
 11640,  1.207
 11700,  1.489
 11760,  1.049
 11820,  1.384
 11880,  1.552
 11940,  1.585
 12000,  1.665
 12060,  1.145
 12120,  1.444
 12180,  2.110
 12240,  1.736
 12300,  1.726
 12360,  1.452
 12420,  1.358
 12480,  1.505
 12540,  1.586
 12600,  1.562
 12660,  1.437
 12720,  1.504
 12780,  1.525
 12840,  1.175
 12900,  1.135
 12960,  1.256
 13020,  1.291
 13080,  1.460
 13140,  1.541
 13200,  1.466
 13260,  1.882
 13320,  1.935
 13380,  2.355
 13440,  2.152
 13500,  1.993
 13560,  2.069
 13620,  1.962
 13680,  2.088
 13740,  2.109
 13800,  2.011
 13860,  1.928
 13920,  2.586
 13980,  2.152
 14040,  2.000
 14100,  2.007
 14160,  1.483
 14220,  1.261
 14280,  1.436
 14340,  2.061
 14400,  2.549
 14460,  2.526
 14520,  2.116
 14580,  1.880
 14640,  2.438
 14700,  1.922
 14760,  2.226
 14820,  1.994
 14880,  1.646
 14940,  1.546
 15000,  1.461
 15060,  1.747
 15120,  2.287
 15180,  2.568
 15240,  2.066
 15300,  2.942
 15360,  2.723
 15420,  3.542
 15480,  3.134
 15540,  3.181
 15600,  4.097
 15660,  3.510
 15720,  2.824
 15780,  2.996
 15840,  3.738
 15900,  3.901
 15960,  4.265
 16020,  2.883
 16080,  2.728
 16140,  2.634
 16200,  2.059
 16260,  1.923
 16320,  2.526
 16380,  1.991
 16440,  1.170
 16500,  2.001
 16560,  1.863
 16620,  1.650
 16680,  1.591
 16740,  1.613
 16800,  1.596
 16860,  1.857
 16920,  2.278
 16980,  2.539
 17040,  2.148
 17100,  2.050
 17160,  1.797
 17220,  3.011
 17280,  3.124
 17340,  3.999
 17400,  2.135
 17460,  3.327
 17520,  4.049
 17580,  2.070
 17640,  3.368
 17700,  2.306
 17760,  2.332
 17820,  1.996
 17880,  1.820
 17940,  1.718
 18000,  1.970
 18060,  1.782
 18120,  2.008
 18180,  1.629
 18240,  1.764
 18300, -9999.000
 18360,  1.899
 18420,  1.564
 18480,  1.780
 18540,  1.829
 18600,  1.810
 18660,  1.570
 18720,  1.200
 18780,  1.152
 18840,  1.167
 18900,  1.136
 18960,  1.572
 19020,  1.436
 19080,  1.410
 19140,  1.320
 19200,  1.238
 19260,  1.406
 19320,  1.066
 19380,  1.027
 19440,  1.428
 19500,  1.002
 19560,  1.802
 19620,  1.485
 19680,  1.501
 19740,  2.184
 19800,  1.407
 19860,  1.566
 19920,  0.937
 19980,  1.334
 20040,  1.585
 20100,  1.650
 20160, -9999.000
 20220,  1.914
 20280,  1.516
 20340,  2.153
 20400,  2.622
 20460,  2.290
 20520,  3.346
 20580,  3.754
 20640,  5.467
 20700,  5.016
 20760,  4.678
 20820,  6.544
 20880,  7.645
 20940,  5.923
 21000,  4.090
 21060,  3.458
 21120,  3.440
 21180,  5.529
 21240,  4.172
 21300,  4.326
 21360,  5.000
 21420,  5.059
 21480,  4.366
 21540,  5.103
 21600,  4.167
 21660,  3.906
 21720,  5.112
 21780,  6.755
 21840,  6.981
 21900,  7.449
 21960,  8.243
 22020, -9999.000
 22080, 11.463
 22140,  9.513
 22200,  9.715
 22260, 10.757
 22320, 10.499
 22380, 12.599
 22440, 11.823
 22500,  9.181
 22560, 13.277
 22620, 11.591
 22680, 13.033
 22740,  9.214
 22800, 10.486
 22860, 13.833
 22920, 13.989
 22980, 12.956
 23040, 11.201
 23100, 10.300
 23160,  9.496
 23220, 11.267
 23280,  8.681
 23340, 14.188
 23400, 14.381
 23460, 10.804
 23520, 12.652
 23580, 11.962
 23640, 14.519
 23700, 13.324
 23760, 10.181
 23820,  8.247
 23880, 11.388
 23940, 12.555
 24000,  8.653
 24060,  7.708
 24120,  9.972
 24180,  7.946
 24240,  9.196
 24300, 10.655
 24360, 11.767
 24420, 16.864
 24480, 18.304
 24540, 21.800
 24600, 20.519
 24660, 27.515
 24720, 29.036
 24780, 25.260
 24840, 24.175
 24900, 23.381
 24960, 24.789
 25020, 33.188
 25080, 41.048
 25140, 38.983
 25200, 35.251
 25260, 26.608
 25320, 23.308
 25380, 24.363
 25440, 27.224
 25500, 30.192
 25560, 33.698
 25620, 24.792
 25680, -9999.000
 25740, 27.157
 25800, 31.849
 25860, 32.414
 25920, 51.231
 25980, 65.484
 26040, 44.379
 26100, 69.860
 26160, 66.068
 26220, 54.890
 26280, 79.882
 26340, 89.476
 26400, 85.385
 26460, 105.909
 26520, 86.547
 26580, 20.249
 26640, 33.651
 26700, 60.920
 26760, 44.214
 26820, 31.092
 26880, 26.008
 26940, 23.619
 27000, 26.489
 27060, 34.983
 27120, 39.751
 27180, 39.826
 27240, 38.820
 27300, 35.932
 27360, 27.924
 27420, 26.040
 27480, 20.263
 27540, -9999.000
 27600, 22.510
 27660, 21.007
 27720, 14.160
 27780, 12.326
 27840, 13.690
 27900, 14.904
 27960, 12.353
 28020,  6.193
 28080,  6.021
 28140,  7.321
 28200,  8.823
 28260,  7.445
 28320,  9.037
 28380,  9.357
 28440,  9.183
 28500,  9.381
 28560, 14.636
 28620, 12.994
 28680, 25.770
 28740, 23.157
 28800, 16.091
 28860, 19.328
 28920, 14.081
 28980,  6.880
 29040,  5.947
 29100,  5.556
 29160, 12.967
 29220, 13.469
 29280, 12.566
 29340, 15.280
 29400, -9999.000
 29460, 13.057
 29520, 14.100
 29580, 12.732
 29640, 15.586
 29700, 39.987
 29760, 43.560
 29820, 33.224
 29880, 61.672
 29940, 37.586
 30000, 30.150
 30060, 38.051
 30120, 57.987
 30180, 63.663
 30240, 72.518
 30300, 47.724
 30360, 54.325
 30420, 39.815
 30480, 43.646
 30540, 76.068
 30600, 60.988
 30660, 57.066
 30720, 48.034
 30780, 43.042
 30840, 31.525
 30900, 36.540
 30960, 30.265
 31020, 22.510
 31080, 34.715
 31140, 44.306
 31200, 57.514
 31260, 43.403
 31320, 44.579
 31380, 88.547
 31440, 85.083
 31500, 66.610
 31560, 68.045
 31620, 63.220
 31680, 67.074
 31740, 86.238
 31800, 98.829
 31860, 107.891
 31920, 70.655
 31980, 74.447
 32040, 78.802
 32100, 137.319
 32160, 244.502
 32220, 104.699
 32280, 66.786
 32340, 121.382
 32400, 159.805
 32460, 142.338
 32520, 118.571
 32580, 114.682
 32640, 100.872
 32700, 134.453
 32760, 85.329
 32820, 81.009
 32880, 108.052
 32940, 113.366
 33000, 141.877
 33060, 252.945
 33120, 105.662
 33180, 122.176
 33240, 115.360
 33300, 121.047
 33360, 169.753
 33420, 199.027
 33480, 167.030
 33540, 188.074
 33600, 201.558
 33660, 168.331
 33720, 172.791
 33780, 158.826
 33840, 102.545
 33900, 130.842
 33960, 94.561
 34020, 93.895
 34080, 130.135
 34140, 134.589
 34200, 160.584
 34260, 130.883
 34320, 153.336
 34380, 139.596
 34440, 166.221
 34500, 116.897
 34560, 135.930
 34620, 116.758
 34680, 152.786
 34740, 118.803
 34800, 79.121
 34860, 96.828
 34920, 95.123
 34980, 79.410
 35040, 70.311
 35100, 83.717
 35160, 86.789
 35220, 106.398
 35280, 87.056
 35340, 88.582
 35400, 87.086
 35460, 97.537
 35520, 110.549
 35580, 117.384
 35640, 93.537
 35700, 62.690
 35760, 88.079
 35820, 63.563
 35880, 70.301
 35940, 64.684
 36000, 99.313
 36060, 105.676
 36120, 117.215
 36180, 94.968
 36240, 124.853
 36300, 108.303
 36360, 73.701
 36420, 59.380
 36480, 51.276
 36540, 59.143
 36600, 54.632
 36660, 56.345
 36720, 52.682
 36780, -9999.000
 36840, 64.379
 36900, 53.204
 36960, 57.235
 37020, 67.458
 37080, 85.662
 37140, 54.840
 37200, 55.162
 37260, 44.158
 37320, 50.047
 37380, 53.497
 37440, 63.039
 37500, 57.375
 37560, 70.145
 37620, 101.679
 37680, 96.766
 37740, 90.194
 37800, 59.091
 37860, 45.132
 37920, 56.070
 37980, 63.997
 38040, 78.937
 38100, 50.295
 38160, 55.564
 38220, 42.541
 38280, 46.110
 38340, 44.857
 38400, 40.071
 38460, 54.214
 38520, 46.647
 38580, 57.623
 38640, -9999.000
 38700, 40.512
 38760, 60.666
 38820, 53.563
 38880, 49.607
 38940, 41.238
 39000, 33.724
 39060, 37.514
 39120, 42.036
 39180, 34.448
 39240, 34.236
 39300, 37.413
 39360, 49.061
 39420, 41.077
 39480, 52.452
 39540, 71.680
 39600, 82.263
 39660, 37.538
 39720, 26.278
 39780, 34.130
 39840, 39.368
 39900, 32.297
 39960, 55.937
 40020, 75.928
 40080, 80.985
 40140, 93.832
 40200, 96.528
 40260, 99.701
 40320, 89.462
 40380, 69.525
 40440, 68.016
 40500, -9999.000
 40560, 57.813
 40620, 106.767
 40680, 90.388
 40740, 80.616
 40800, 60.578
 40860, 46.164
 40920, 62.835
 40980, 77.807
 41040, 43.020
 41100, 34.395
 41160, 46.717
 41220, 46.823
 41280, 44.534
 41340, 88.500
 41400, 98.612
 41460, 162.852
 41520, 84.162
 41580, 104.994
 41640, 129.117
 41700, 165.308
 41760, 137.139
 41820, 78.734
 41880, 160.224
 41940, 145.783
 42000, 108.748
 42060, 102.776
 42120, 142.995
 42180, 125.423
 42240, 155.757
 42300, 178.809
 42360, 116.170
 42420, 116.762
 42480, 109.577
 42540, 117.554
 42600, 111.418
 42660, 97.312
 42720, 101.411
 42780, 45.903
 42840, 45.903
 42900, 52.883
 42960, 98.413
 43020, 181.233
 43080, 124.620
 43140, 61.697
 43200, 64.238
 43260, 77.438
 43320, 37.410
 43380, 47.080
 43440, 71.252
 43500, 65.042
 43560, 71.403
 43620, 39.489
 43680, 36.310
 43740, 36.751
 43800, 48.771
 43860, 44.947
 43920, 27.655
 43980, 29.814
 44040, 29.432
 44100, 25.915
 44160, -9999.000
 44220, 31.237
 44280, 27.684
 44340, 30.241
 44400, 34.176
 44460, 28.341
 44520, 34.047
 44580, 49.811
 44640, 64.329
 44700, 68.501
 44760, 52.142
 44820, 38.914
 44880, 29.330
 44940, 16.457
 45000, 17.388
 45060, 17.603
 45120, 22.645
 45180, 24.240
 45240, 24.055
 45300, 25.017
 45360, 24.362
 45420, 24.611
 45480, 24.059
 45540, 10.850
 45600, 12.166
 45660, 16.266
 45720, 28.424
 45780, 11.639
 45840, 10.348
 45900, 11.551
 45960, 18.280
 46020, -9999.000
 46080, 11.529
 46140, 15.752
 46200, 14.262
 46260, 12.881
 46320, 12.093
 46380, 10.589
 46440, 11.506
 46500, 11.902
 46560,  9.456
 46620,  9.076
 46680, 12.055
 46740, 12.669
 46800, -9999.000
 46860, -9999.000
 46920, -9999.000
 46980, -9999.000
 47040, -9999.000
 47100, -9999.000
 47160, -9999.000
 47220, -9999.000
 47280, -9999.000
 47340, -9999.000
 47400, -9999.000
 47460, -9999.000
 47520, -9999.000
 47580, -9999.000
 47640, -9999.000
 47700, -9999.000
 47760, -9999.000
 47820, -9999.000
 47880, -9999.000
 47940, -9999.000
 48000, -9999.000
 48060, -9999.000
 48120, -9999.000
 48180, -9999.000
 48240, -9999.000
 48300, -9999.000
 48360, -9999.000
 48420, -9999.000
 48480, -9999.000
 48540, -9999.000
 48600, -9999.000
 48660, -9999.000
 48720, -9999.000
 48780, -9999.000
 48840, -9999.000
 48900, -9999.000
 48960, -9999.000
 49020, -9999.000
 49080, -9999.000
 49140, -9999.000
 49200, -9999.000
 49260, -9999.000
 49320, -9999.000
 49380, -9999.000
 49440, -9999.000
 49500, -9999.000
 49560, -9999.000
 49620, -9999.000
 49680, -9999.000
 49740, -9999.000
 49800, -9999.000
 49860, -9999.000
 49920, -9999.000
 49980, -9999.000
 50040, -9999.000
 50100, -9999.000
 50160, -9999.000
 50220, -9999.000
 50280, -9999.000
 50340, -9999.000
 50400, -9999.000
 50460, -9999.000
 50520, -9999.000
 50580, -9999.000
 50640, -9999.000
 50700, -9999.000
 50760, -9999.000
 50820, -9999.000
 50880, -9999.000
 50940, -9999.000
 51000, -9999.000
 51060, -9999.000
 51120, -9999.000
 51180, -9999.000
 51240, -9999.000
 51300, -9999.000
 51360, -9999.000
 51420, -9999.000
 51480, -9999.000
 51540, -9999.000
 51600, -9999.000
 51660, -9999.000
 51720, -9999.000
 51780, -9999.000
 51840, -9999.000
 51900, -9999.000
 51960, -9999.000
 52020, -9999.000
 52080, -9999.000
 52140, -9999.000
 52200, -9999.000
 52260, -9999.000
 52320, -9999.000
 52380, -9999.000
 52440, -9999.000
 52500, -9999.000
 52560, -9999.000
 52620, -9999.000
 52680, -9999.000
 52740, -9999.000
 52800, -9999.000
 52860, -9999.000
 52920, -9999.000
 52980, -9999.000
 53040, -9999.000
 53100, -9999.000
 53160, -9999.000
 53220, -9999.000
 53280, -9999.000
 53340, -9999.000
 53400, -9999.000
 53460, -9999.000
 53520, -9999.000
 53580, -9999.000
 53640, -9999.000
 53700, -9999.000
 53760, -9999.000
 53820, -9999.000
 53880, -9999.000
 53940, -9999.000
 54000, -9999.000
 54060, -9999.000
 54120, -9999.000
 54180, -9999.000
 54240, -9999.000
 54300, -9999.000
 54360, -9999.000
 54420, -9999.000
 54480, -9999.000
 54540, -9999.000
 54600, -9999.000
 54660, -9999.000
 54720, -9999.000
 54780, -9999.000
 54840, -9999.000
 54900, -9999.000
 54960, -9999.000
 55020, -9999.000
 55080, -9999.000
 55140, -9999.000
 55200, -9999.000
 55260, -9999.000
 55320, -9999.000
 55380, -9999.000
 55440, -9999.000
 55500, -9999.000
 55560, -9999.000
 55620, -9999.000
 55680, -9999.000
 55740, -9999.000
 55800, -9999.000
 55860, -9999.000
 55920, -9999.000
 55980, -9999.000
 56040, -9999.000
 56100, -9999.000
 56160, -9999.000
 56220, -9999.000
 56280, -9999.000
 56340, -9999.000
 56400, -9999.000
 56460, -9999.000
 56520, -9999.000
 56580, -9999.000
 56640, -9999.000
 56700, -9999.000
 56760, -9999.000
 56820, -9999.000
 56880, -9999.000
 56940, -9999.000
 57000, -9999.000
 57060, -9999.000
 57120, -9999.000
 57180, -9999.000
 57240, -9999.000
 57300, -9999.000
 57360, -9999.000
 57420, -9999.000
 57480, -9999.000
 57540, -9999.000
 57600, -9999.000
 57660, -9999.000
 57720, -9999.000
 57780, -9999.000
 57840, -9999.000
 57900, -9999.000
 57960, -9999.000
 58020, -9999.000
 58080, -9999.000
 58140, -9999.000
 58200, -9999.000
 58260, -9999.000
 58320, -9999.000
 58380, -9999.000
 58440, -9999.000
 58500, -9999.000
 58560, -9999.000
 58620, -9999.000
 58680, -9999.000
 58740, -9999.000
 58800, -9999.000
 58860, -9999.000
 58920, -9999.000
 58980, -9999.000
 59040, -9999.000
 59100, -9999.000
 59160, -9999.000
 59220, -9999.000
 59280, -9999.000
 59340, -9999.000
 59400, -9999.000
 59460, -9999.000
 59520, -9999.000
 59580, -9999.000
 59640, -9999.000
 59700, -9999.000
 59760, -9999.000
 59820, -9999.000
 59880, -9999.000
 59940, -9999.000
 60000, -9999.000
 60060, -9999.000
 60120, -9999.000
 60180, -9999.000
 60240, -9999.000
 60300, -9999.000
 60360, -9999.000
 60420, -9999.000
 60480, -9999.000
 60540, -9999.000
 60600, -9999.000
 60660, -9999.000
 60720, -9999.000
 60780, -9999.000
 60840, -9999.000
 60900, -9999.000
 60960, -9999.000
 61020, -9999.000
 61080, -9999.000
 61140, -9999.000
 61200, -9999.000
 61260, -9999.000
 61320, -9999.000
 61380, -9999.000
 61440, -9999.000
 61500, -9999.000
 61560, -9999.000
 61620, -9999.000
 61680, -9999.000
 61740, -9999.000
 61800, -9999.000
 61860, -9999.000
 61920, -9999.000
 61980, -9999.000
 62040, -9999.000
 62100, -9999.000
 62160, -9999.000
 62220, -9999.000
 62280, -9999.000
 62340, -9999.000
 62400, -9999.000
 62460, -9999.000
 62520, -9999.000
 62580, -9999.000
 62640, -9999.000
 62700, -9999.000
 62760, -9999.000
 62820, -9999.000
 62880, -9999.000
 62940, -9999.000
 63000, -9999.000
 63060, -9999.000
 63120, -9999.000
 63180, -9999.000
 63240, -9999.000
 63300, -9999.000
 63360, -9999.000
 63420, -9999.000
 63480, -9999.000
 63540, -9999.000
 63600, -9999.000
 63660, -9999.000
 63720, -9999.000
 63780, -9999.000
 63840, -9999.000
 63900, -9999.000
 63960, -9999.000
 64020, -9999.000
 64080, -9999.000
 64140, -9999.000
 64200, -9999.000
 64260, -9999.000
 64320, -9999.000
 64380, -9999.000
 64440, -9999.000
 64500, -9999.000
 64560, -9999.000
 64620, -9999.000
 64680, -9999.000
 64740, -9999.000
 64800, -9999.000
 64860, -9999.000
 64920, -9999.000
 64980, -9999.000
 65040, -9999.000
 65100, -9999.000
 65160, -9999.000
 65220, -9999.000
 65280, -9999.000
 65340, -9999.000
 65400, -9999.000
 65460, -9999.000
 65520, -9999.000
 65580, -9999.000
 65640, -9999.000
 65700, -9999.000
 65760, -9999.000
 65820, -9999.000
 65880, -9999.000
 65940, -9999.000
 66000, -9999.000
 66060, -9999.000
 66120, -9999.000
 66180, -9999.000
 66240, -9999.000
 66300, -9999.000
 66360, -9999.000
 66420, -9999.000
 66480, -9999.000
 66540, -9999.000
 66600, -9999.000
 66660, -9999.000
 66720, -9999.000
 66780, -9999.000
 66840, -9999.000
 66900, -9999.000
 66960, -9999.000
 67020, -9999.000
 67080, -9999.000
 67140, -9999.000
 67200, -9999.000
 67260, -9999.000
 67320, -9999.000
 67380, -9999.000
 67440, -9999.000
 67500, -9999.000
 67560, -9999.000
 67620, -9999.000
 67680, -9999.000
 67740, -9999.000
 67800, -9999.000
 67860, -9999.000
 67920, -9999.000
 67980, -9999.000
 68040, -9999.000
 68100, -9999.000
 68160, -9999.000
 68220, -9999.000
 68280, -9999.000
 68340, -9999.000
 68400, -9999.000
 68460, -9999.000
 68520, -9999.000
 68580, -9999.000
 68640, -9999.000
 68700, -9999.000
 68760, -9999.000
 68820, -9999.000
 68880, -9999.000
 68940, -9999.000
 69000, -9999.000
 69060, -9999.000
 69120, -9999.000
 69180, -9999.000
 69240, -9999.000
 69300, -9999.000
 69360, -9999.000
 69420, -9999.000
 69480, -9999.000
 69540, -9999.000
 69600, -9999.000
 69660, -9999.000
 69720, -9999.000
 69780, -9999.000
 69840, -9999.000
 69900, -9999.000
 69960, -9999.000
 70020, -9999.000
 70080, -9999.000
 70140, -9999.000
 70200, -9999.000
 70260, -9999.000
 70320, -9999.000
 70380, -9999.000
 70440, -9999.000
 70500, -9999.000
 70560, -9999.000
 70620, -9999.000
 70680, -9999.000
 70740, -9999.000
 70800, -9999.000
 70860, -9999.000
 70920, -9999.000
 70980, -9999.000
 71040, -9999.000
 71100, -9999.000
 71160, -9999.000
 71220, -9999.000
 71280, -9999.000
 71340, -9999.000
 71400, -9999.000
 71460, -9999.000
 71520, -9999.000
 71580, -9999.000
 71640, -9999.000
 71700, -9999.000
 71760, -9999.000
 71820, -9999.000
 71880, -9999.000
 71940, -9999.000
 72000, -9999.000
 72060, -9999.000
 72120, -9999.000
 72180, -9999.000
 72240, -9999.000
 72300, -9999.000
 72360, -9999.000
 72420, -9999.000
 72480, -9999.000
 72540, -9999.000
 72600, -9999.000
 72660, -9999.000
 72720, -9999.000
 72780, -9999.000
 72840, -9999.000
 72900, -9999.000
 72960, -9999.000
 73020, -9999.000
 73080, -9999.000
 73140, -9999.000
 73200, -9999.000
 73260, -9999.000
 73320, -9999.000
 73380, -9999.000
 73440, -9999.000
 73500, -9999.000
 73560, -9999.000
 73620, -9999.000
 73680, -9999.000
 73740, -9999.000
 73800, -9999.000
 73860, -9999.000
 73920, -9999.000
 73980, -9999.000
 74040, -9999.000
 74100, -9999.000
 74160, -9999.000
 74220, -9999.000
 74280, -9999.000
 74340, -9999.000
 74400, -9999.000
 74460, -9999.000
 74520, -9999.000
 74580, -9999.000
 74640, -9999.000
 74700, -9999.000
 74760, -9999.000
 74820, -9999.000
 74880, -9999.000
 74940, -9999.000
 75000, -9999.000
 75060, -9999.000
 75120, -9999.000
 75180, -9999.000
 75240, -9999.000
 75300, -9999.000
 75360, -9999.000
 75420, -9999.000
 75480, -9999.000
 75540, -9999.000
 75600, -9999.000
 75660, -9999.000
 75720, -9999.000
 75780, -9999.000
 75840, -9999.000
 75900, -9999.000
 75960, -9999.000
 76020, -9999.000
 76080, -9999.000
 76140, -9999.000
 76200, -9999.000
 76260, -9999.000
 76320, -9999.000
 76380, -9999.000
 76440, -9999.000
 76500, -9999.000
 76560, -9999.000
 76620, -9999.000
 76680, -9999.000
 76740, -9999.000
 76800, -9999.000
 76860, -9999.000
 76920, -9999.000
 76980, -9999.000
 77040, -9999.000
 77100, -9999.000
 77160, -9999.000
 77220, -9999.000
 77280, -9999.000
 77340, -9999.000
 77400, -9999.000
 77460, -9999.000
 77520, -9999.000
 77580, -9999.000
 77640, -9999.000
 77700, -9999.000
 77760, -9999.000
 77820, -9999.000
 77880, -9999.000
 77940, -9999.000
 78000, -9999.000
 78060, -9999.000
 78120, -9999.000
 78180, -9999.000
 78240, -9999.000
 78300, -9999.000
 78360, -9999.000
 78420, -9999.000
 78480, -9999.000
 78540, -9999.000
 78600, -9999.000
 78660, -9999.000
 78720, -9999.000
 78780, -9999.000
 78840, -9999.000
 78900, -9999.000
 78960, -9999.000
 79020, -9999.000
 79080, -9999.000
 79140, -9999.000
 79200, -9999.000
 79260, -9999.000
 79320, -9999.000
 79380, -9999.000
 79440, -9999.000
 79500, -9999.000
 79560, -9999.000
 79620, -9999.000
 79680, -9999.000
 79740, -9999.000
 79800, -9999.000
 79860, -9999.000
 79920, -9999.000
 79980, -9999.000
 80040, -9999.000
 80100, -9999.000
 80160, -9999.000
 80220, -9999.000
 80280, -9999.000
 80340, -9999.000
 80400, -9999.000
 80460, -9999.000
 80520, -9999.000
 80580, -9999.000
 80640, -9999.000
 80700, -9999.000
 80760, -9999.000
 80820, -9999.000
 80880, -9999.000
 80940, -9999.000
 81000, -9999.000
 81060, -9999.000
 81120, -9999.000
 81180, -9999.000
 81240, -9999.000
 81300, -9999.000
 81360, -9999.000
 81420, -9999.000
 81480, -9999.000
 81540, -9999.000
 81600, -9999.000
 81660, -9999.000
 81720, -9999.000
 81780, -9999.000
 81840, -9999.000
 81900, -9999.000
 81960, -9999.000
 82020, -9999.000
 82080, -9999.000
 82140, -9999.000
 82200, -9999.000
 82260, -9999.000
 82320, -9999.000
 82380, -9999.000
 82440, -9999.000
 82500, -9999.000
 82560, -9999.000
 82620, -9999.000
 82680, -9999.000
 82740, -9999.000
 82800, -9999.000
 82860, -9999.000
 82920, -9999.000
 82980, -9999.000
 83040, -9999.000
 83100, -9999.000
 83160, -9999.000
 83220, -9999.000
 83280, -9999.000
 83340, -9999.000
 83400, -9999.000
 83460, -9999.000
 83520, -9999.000
 83580, -9999.000
 83640, -9999.000
 83700, -9999.000
 83760, -9999.000
 83820, -9999.000
 83880, -9999.000
 83940, -9999.000
 84000, -9999.000
 84060, -9999.000
 84120, -9999.000
 84180, -9999.000
 84240, -9999.000
 84300, -9999.000
 84360, -9999.000
 84420, -9999.000
 84480, -9999.000
 84540, -9999.000
 84600, -9999.000
 84660, -9999.000
 84720, -9999.000
 84780, -9999.000
 84840, -9999.000
 84900, -9999.000
 84960, -9999.000
 85020, -9999.000
 85080, -9999.000
 85140, -9999.000
 85200, -9999.000
 85260, -9999.000
 85320, -9999.000
 85380, -9999.000
 85440, -9999.000
 85500, -9999.000
 85560, -9999.000
 85620, -9999.000
 85680, -9999.000
 85740, -9999.000
 85800, -9999.000
 85860, -9999.000
 85920, -9999.000
 85980, -9999.000
 86040, -9999.000
 86100, -9999.000
 86160, -9999.000
 86220, -9999.000
 86280, -9999.000
 86340, -9999.000
