33, 1001
Michael A Robinson, Chris Jernigan, Subi Thakali
NOAA ESRL Chemical Sciences Laboratory and CIRES, U. of Colorado
NOAA Iodide CIMS Instrument
USOS
1, 1
2024, 08, 03, 2024, 08, 04
1
starttime_UTC, seconds_past_midnight, seconds_of_day_since_00:00:00_UTC
1
1
-9999
HNO2_NOAACIMS, pptv, Gas_HNO2_InSitu_S_AVMR, 
0
18
PI_CONTACT_INFO: 325 Broadway, R/CSD 7, Boulder, Colorado 80305; michael.a.robinson@noaa.gov; chris.jernigan@noaa.gov;
PLATFORM: NOAA CSL Mobile Lab
LOCATION: SLC, Utah
ASSOCIATED_DATA: 1Hz data also available on request.
INSTRUMENT_INFO: NOAA I- ToF CIMS
DATA_INFO: All data in parts per trillion by volume (pptv). 1 Hz data is available upon request.
UNCERTAINTY: TBD
ULOD_FLAG: -7777
ULOD_VALUE: N/A
LLOD_FLAG: -8888
LLOD_VALUE: N/A
DM_CONTACT_INFO: Nathan Howard; nathan.h.howard@noaa.gov
PROJECT_INFO: USOS, summer 2024. https://csl.noaa.gov/groups/csl7/measurements/2024usos/
STIPULATIONS_ON_USE: Users are strongly encouraged to contact the PI for proper data usage.
OTHER_COMMENTS: 
REVISION: RA
RA: Preliminary Data; For in-field use only
starttime_UTC, HNO2_NOAACIMS
     0, 10.335
    60, 30.265
   120, 25.977
   180, 18.206
   240, 21.510
   300, 22.358
   360,  8.540
   420, 13.706
   480, 14.454
   540, -9999.000
   600, -9999.000
   660, -9999.000
   720, -9999.000
   780, -9999.000
   840, -9999.000
   900, -9999.000
   960, -9999.000
  1020, -9999.000
  1080, -9999.000
  1140, -9999.000
  1200, -9999.000
  1260, -9999.000
  1320, -9999.000
  1380, -9999.000
  1440, -9999.000
  1500, -9999.000
  1560, -9999.000
  1620, -9999.000
  1680, -9999.000
  1740, -9999.000
  1800, -9999.000
  1860, -9999.000
  1920, -9999.000
  1980, -9999.000
  2040, -9999.000
  2100, -9999.000
  2160, -9999.000
  2220, -9999.000
  2280, -9999.000
  2340, -9999.000
  2400, -9999.000
  2460, -9999.000
  2520, -9999.000
  2580, -9999.000
  2640, -9999.000
  2700, -9999.000
  2760, -9999.000
  2820, -9999.000
  2880, -9999.000
  2940, -9999.000
  3000, -9999.000
  3060, -9999.000
  3120, -9999.000
  3180, -9999.000
  3240, -9999.000
  3300, -9999.000
  3360, -9999.000
  3420, -9999.000
  3480, -9999.000
  3540, -9999.000
  3600, -9999.000
  3660, -9999.000
  3720, -9999.000
  3780, -9999.000
  3840, -9999.000
  3900, -9999.000
  3960, -9999.000
  4020, -9999.000
  4080,  4.321
  4140, 11.506
  4200,  5.706
  4260,  5.428
  4320, 10.708
  4380,  9.013
  4440, 10.095
  4500, 12.123
  4560,  9.025
  4620,  7.652
  4680, 14.160
  4740, 10.070
  4800,  5.029
  4860,  8.815
  4920, 15.867
  4980, 19.458
  5040, -9999.000
  5100, 17.902
  5160,  7.691
  5220, 16.409
  5280, 19.461
  5340, 13.558
  5400, 13.069
  5460, 12.957
  5520, 10.750
  5580,  9.045
  5640, 16.029
  5700, 11.086
  5760, 14.271
  5820,  9.871
  5880,  9.808
  5940, 11.569
  6000,  7.773
  6060, 14.489
  6120, 13.996
  6180, 16.700
  6240, 17.803
  6300, 20.423
  6360, 22.296
  6420, 23.598
  6480, 27.395
  6540, 24.590
  6600, 30.338
  6660, 31.212
  6720, 28.038
  6780, 23.553
  6840, 21.874
  6900, 32.991
  6960, 32.679
  7020, 33.603
  7080, 39.606
  7140, 34.058
  7200, 35.104
  7260, 42.173
  7320, 36.576
  7380, 32.656
  7440, 35.314
  7500, 35.348
  7560, 34.218
  7620, 37.116
  7680, 39.934
  7740, 45.937
  7800, 39.993
  7860, 46.701
  7920, 44.571
  7980, 47.073
  8040, 48.698
  8100, 52.645
  8160, 52.208
  8220, 47.952
  8280, 59.076
  8340, 64.757
  8400, 64.004
  8460, 62.735
  8520, 84.083
  8580, 98.177
  8640, 90.265
  8700, -9999.000
  8760, 119.389
  8820, 128.246
  8880, 131.160
  8940, 133.319
  9000, 134.523
  9060, 136.485
  9120, 137.134
  9180, 138.188
  9240, 127.141
  9300, 114.882
  9360, 114.167
  9420, 107.794
  9480, 92.568
  9540, 114.781
  9600, 116.683
  9660, 113.516
  9720, 80.308
  9780, 87.054
  9840, 57.045
  9900, 56.094
  9960, 58.988
 10020, 73.321
 10080, 78.667
 10140, 75.609
 10200, 67.472
 10260, 44.837
 10320, 59.107
 10380, 57.507
 10440, 52.476
 10500, 70.427
 10560, -9999.000
 10620, 54.614
 10680, 58.510
 10740, 45.668
 10800, 42.264
 10860, 44.074
 10920, 50.167
 10980, 44.609
 11040, 49.149
 11100, 52.985
 11160, 41.436
 11220, 50.590
 11280, 47.044
 11340, 35.517
 11400, 49.166
 11460, 55.557
 11520, 49.879
 11580, 41.266
 11640, 55.549
 11700, 39.530
 11760, 53.626
 11820, 46.080
 11880, 48.022
 11940, 44.281
 12000, 38.402
 12060, 32.856
 12120, 37.989
 12180, 35.422
 12240, 45.156
 12300, 33.161
 12360, 37.624
 12420, -9999.000
 12480, 46.060
 12540, 37.971
 12600, 37.900
 12660, 33.590
 12720, 37.985
 12780, 34.930
 12840, 45.869
 12900, 34.358
 12960, 37.433
 13020, 37.938
 13080, 30.652
 13140, 27.747
 13200, 32.233
 13260, 30.566
 13320, 37.476
 13380, 32.423
 13440, 27.413
 13500, 24.022
 13560, 28.003
 13620, 37.067
 13680, 27.087
 13740, 40.393
 13800, 34.780
 13860, 43.295
 13920, 34.863
 13980, 48.294
 14040, 32.582
 14100, 31.915
 14160, 41.833
 14220, 44.613
 14280, 36.220
 14340, 20.807
 14400, 40.502
 14460, 31.874
 14520, 22.597
 14580, 21.429
 14640, 22.590
 14700, 29.708
 14760, 31.485
 14820, 26.008
 14880, 23.732
 14940, 20.951
 15000, 25.878
 15060, 33.658
 15120, 32.293
 15180, 34.159
 15240, 31.637
 15300, 21.089
 15360, 30.520
 15420, 23.648
 15480, 37.654
 15540, 30.964
 15600, 28.922
 15660, 22.738
 15720, 40.718
 15780, 32.269
 15840, 38.031
 15900, 50.015
 15960, 36.855
 16020, 39.244
 16080, 36.265
 16140, 60.432
 16200, 40.594
 16260, 38.115
 16320, 22.413
 16380, 47.332
 16440, 20.196
 16500, 33.365
 16560, 33.938
 16620, 32.344
 16680, 38.503
 16740, 41.823
 16800, 63.196
 16860, 56.755
 16920, 54.862
 16980, 51.456
 17040, 56.526
 17100, 65.419
 17160, 48.800
 17220, 53.783
 17280, 38.311
 17340, 42.919
 17400, 49.103
 17460, 53.248
 17520, 81.849
 17580, 68.476
 17640, 62.792
 17700, 64.733
 17760, 56.621
 17820, 50.019
 17880, 28.091
 17940, 31.789
 18000, 26.697
 18060, 31.642
 18120, 39.439
 18180, 56.615
 18240, 70.803
 18300, 111.591
 18360, 96.403
 18420, 94.630
 18480, 88.087
 18540, 67.098
 18600, 85.955
 18660, 54.637
 18720, 67.692
 18780, 57.635
 18840, 46.248
 18900, 51.408
 18960, 39.273
 19020, 31.271
 19080, 34.503
 19140, 38.442
 19200, 33.471
 19260, 34.641
 19320, 21.608
 19380, 26.476
 19440, 21.037
 19500, 37.824
 19560, 45.304
 19620, 47.347
 19680, 63.726
 19740, 59.066
 19800, -9999.000
 19860, 89.259
 19920, 64.459
 19980, 67.526
 20040, 77.408
 20100, 88.153
 20160, 88.500
 20220, 84.092
 20280, 85.919
 20340, 88.633
 20400, 73.695
 20460, 45.650
 20520, 41.578
 20580, 71.626
 20640, 65.841
 20700, 54.511
 20760, 81.133
 20820, 65.634
 20880, 42.000
 20940, 42.220
 21000, 28.499
 21060, 52.871
 21120, 51.025
 21180, 35.715
 21240, 38.556
 21300, 32.567
 21360, 33.513
 21420, 43.601
 21480, 29.657
 21540, 26.012
 21600, 34.928
 21660, 56.143
 21720, 33.295
 21780, 19.679
 21840, 39.128
 21900, 32.587
 21960, 22.731
 22020, 35.873
 22080, 28.126
 22140, 27.595
 22200, 37.499
 22260, 22.417
 22320, 28.654
 22380, 35.912
 22440, 26.757
 22500, 24.534
 22560, 21.738
 22620, 17.979
 22680, 28.537
 22740, 25.774
 22800, 39.818
 22860, 45.657
 22920, 33.764
 22980, 25.226
 23040, 11.212
 23100, 16.492
 23160, 14.203
 23220, 12.802
 23280, 19.549
 23340,  6.842
 23400, 19.030
 23460, 16.600
 23520, -9999.000
 23580, 16.583
 23640,  0.826
 23700,  7.575
 23760, 12.568
 23820,  8.745
 23880, 21.881
 23940, 17.704
 24000, 11.412
 24060, 12.322
 24120, 10.441
 24180, 18.212
 24240,  6.515
 24300,  3.726
 24360,  2.023
 24420,  3.742
 24480, 10.260
 24540,  9.885
 24600,  8.401
 24660,  0.716
 24720,  4.902
 24780, -0.578
 24840, 11.411
 24900,  6.029
 24960,  8.881
 25020,  9.893
 25080, 16.036
 25140,  1.369
 25200,  5.722
 25260,  5.662
 25320, 10.436
 25380,  9.473
 25440,  7.865
 25500,  9.672
 25560, 36.663
 25620, 21.584
 25680, 11.543
 25740, 14.596
 25800, 15.297
 25860, 14.956
 25920,  6.874
 25980,  0.719
 26040, 13.744
 26100, 33.046
 26160, 12.602
 26220, 16.847
 26280, 11.120
 26340,  8.921
 26400, 11.955
 26460, 17.902
 26520, 17.564
 26580, 13.978
 26640, 20.907
 26700, 22.319
 26760, 15.295
 26820, 27.613
 26880,  7.566
 26940, 19.074
 27000, 19.929
 27060, 22.151
 27120, 22.272
 27180, -9999.000
 27240, 17.070
 27300, 14.808
 27360, 23.824
 27420, 22.399
 27480, 16.530
 27540, 39.420
 27600, 60.177
 27660, 84.115
 27720, 98.185
 27780, 94.203
 27840, 110.092
 27900, 106.896
 27960, 119.282
 28020, 93.989
 28080, 119.363
 28140, 123.095
 28200, 105.975
 28260, 117.936
 28320, 120.815
 28380, 115.610
 28440, 112.512
 28500, 113.084
 28560, 117.340
 28620, 125.538
 28680, 116.845
 28740, 106.691
 28800, 97.689
 28860, 114.010
 28920, 135.180
 28980, 133.640
 29040, -9999.000
 29100, 132.616
 29160, 119.168
 29220, 131.574
 29280, 124.982
 29340, 145.250
 29400, 125.008
 29460, 96.791
 29520, 78.544
 29580, 86.366
 29640, 70.052
 29700, 81.124
 29760, 81.102
 29820, 88.251
 29880, 86.729
 29940, 68.631
 30000, 57.122
 30060, 76.705
 30120, 81.215
 30180, 91.175
 30240, 80.575
 30300, 110.714
 30360, 122.707
 30420, 114.081
 30480, 122.675
 30540, 93.860
 30600, 102.830
 30660, 96.673
 30720, 104.500
 30780, 102.550
 30840, 92.712
 30900, -9999.000
 30960, 93.748
 31020, 102.302
 31080, 82.929
 31140, 83.870
 31200, 86.234
 31260, 83.749
 31320, 94.202
 31380, 101.863
 31440, 96.345
 31500, 105.248
 31560, 97.278
 31620, 99.241
 31680, 130.693
 31740, 150.130
 31800, 289.973
 31860, 203.848
 31920, 130.308
 31980, 168.860
 32040, 121.895
 32100, 144.369
 32160, 164.812
 32220, 285.335
 32280, 161.159
 32340, 150.792
 32400, 131.284
 32460, 129.293
 32520, 131.457
 32580, 125.568
 32640, 132.715
 32700, 139.739
 32760, 115.678
 32820, 121.154
 32880, 130.024
 32940, 121.767
 33000, 130.124
 33060, 112.866
 33120, 141.257
 33180, 136.865
 33240, 126.989
 33300, 159.914
 33360, 150.465
 33420, 156.935
 33480, 183.613
 33540, 251.052
 33600, 198.984
 33660, 172.882
 33720, 171.770
 33780, 182.155
 33840, 199.453
 33900, 175.267
 33960, 173.322
 34020, 189.312
 34080, 181.090
 34140, 193.823
 34200, 185.120
 34260, 176.289
 34320, 179.984
 34380, 178.521
 34440, 140.286
 34500, 143.943
 34560, -9999.000
 34620, 159.824
 34680, 167.821
 34740, 162.065
 34800, 161.798
 34860, 177.067
 34920, 169.505
 34980, 161.198
 35040, 173.833
 35100, 171.075
 35160, 145.555
 35220, 143.352
 35280, 144.826
 35340, 143.211
 35400, 122.050
 35460, 128.009
 35520, 93.451
 35580, 70.415
 35640, 56.128
 35700, 40.052
 35760, 51.070
 35820, 48.958
 35880, 54.501
 35940, 59.012
 36000, 50.829
 36060, 34.389
 36120, 39.538
 36180, 53.408
 36240, 53.705
 36300, 46.178
 36360, 47.613
 36420, 71.889
 36480, 57.064
 36540, 57.680
 36600, 58.541
 36660, 68.213
 36720, 48.303
 36780, 52.379
 36840, 62.814
 36900, 52.424
 36960, 67.886
 37020, 66.371
 37080, 60.404
 37140, 60.248
 37200, 70.900
 37260, 80.243
 37320, 78.054
 37380, 75.648
 37440, 76.867
 37500, 74.155
 37560, 69.780
 37620, 81.028
 37680, 86.542
 37740, 89.216
 37800, 85.055
 37860, 101.876
 37920, 96.566
 37980, 74.999
 38040, 88.548
 38100, 101.693
 38160, 91.631
 38220, 99.386
 38280, -9999.000
 38340, 91.759
 38400, 77.888
 38460, 72.496
 38520, 82.241
 38580, 72.440
 38640, 57.434
 38700, 57.881
 38760, 74.955
 38820, 76.146
 38880, 58.791
 38940, 86.057
 39000, 95.306
 39060, 88.254
 39120, 76.734
 39180, 73.231
 39240, 77.454
 39300, 104.261
 39360, 101.478
 39420, 81.042
 39480, 79.496
 39540, 80.915
 39600, 67.649
 39660, 63.360
 39720, 86.908
 39780, 93.670
 39840, 99.262
 39900, 89.197
 39960, 88.104
 40020, 83.040
 40080, 83.333
 40140, 90.889
 40200, 88.914
 40260, 89.193
 40320, 99.781
 40380, 92.128
 40440, 100.755
 40500, 98.185
 40560, 95.058
 40620, 94.921
 40680, 103.053
 40740, 115.090
 40800, 123.832
 40860, 118.894
 40920, 100.485
 40980, 103.212
 41040, 109.304
 41100, 97.515
 41160, 124.852
 41220, 130.011
 41280, 110.445
 41340, 113.327
 41400, 146.269
 41460, 137.199
 41520, 152.390
 41580, 155.197
 41640, 139.856
 41700, 149.013
 41760, 137.058
 41820, 144.866
 41880, 135.397
 41940, 132.305
 42000, -9999.000
 42060, 176.802
 42120, 163.883
 42180, 205.406
 42240, 202.560
 42300, 162.600
 42360, 149.791
 42420, 151.703
 42480, 165.090
 42540, 187.530
 42600, 154.040
 42660, 164.436
 42720, 173.385
 42780, 173.380
 42840, 188.611
 42900, 164.228
 42960, 178.291
 43020, 187.769
 43080, 181.803
 43140, 182.086
 43200, 179.770
 43260, 165.975
 43320, 182.115
 43380, 190.325
 43440, 206.413
 43500, 183.559
 43560, 181.035
 43620, 192.650
 43680, 191.433
 43740, 178.294
 43800, 187.860
 43860, 197.791
 43920, 194.909
 43980, 205.879
 44040, 187.798
 44100, 207.550
 44160, 206.382
 44220, 185.213
 44280, 202.298
 44340, 212.543
 44400, 194.511
 44460, 199.595
 44520, 201.732
 44580, 184.436
 44640, 194.211
 44700, 175.717
 44760, 164.494
 44820, 189.693
 44880, 212.263
 44940, 214.664
 45000, 201.775
 45060, 199.270
 45120, 191.018
 45180, 106.853
 45240, 133.223
 45300, 159.105
 45360, 155.113
 45420, 148.601
 45480, 120.191
 45540, 130.012
 45600, 127.401
 45660, -9999.000
 45720, 112.556
 45780, 100.118
 45840, 112.114
 45900, 103.127
 45960, 73.710
 46020, 79.063
 46080, 84.468
 46140, 89.050
 46200, 83.973
 46260, 90.751
 46320, 85.568
 46380, 61.538
 46440, 63.573
 46500, 72.763
 46560, 44.479
 46620, 57.602
 46680, 72.119
 46740, 67.219
 46800, 98.257
 46860, 115.607
 46920, 118.219
 46980, 122.975
 47040, 132.144
 47100, 117.580
 47160, 104.829
 47220, 76.398
 47280, 76.508
 47340, 58.653
 47400, 67.885
 47460, 76.127
 47520, -9999.000
 47580, 92.389
 47640, 105.526
 47700, 127.443
 47760, 123.098
 47820, 149.578
 47880, 118.173
 47940, 78.128
 48000, 64.030
 48060, 60.666
 48120, 89.975
 48180, 91.697
 48240, 82.970
 48300, 77.201
 48360, 79.339
 48420, 102.382
 48480, 99.581
 48540, 139.961
 48600, 142.779
 48660, 131.420
 48720, 92.436
 48780, 97.752
 48840, 111.934
 48900, 160.067
 48960, 132.507
 49020, 68.572
 49080, 57.831
 49140, 53.452
 49200, 74.887
 49260, 58.828
 49320, 47.517
 49380, -9999.000
 49440, 74.763
 49500, 95.819
 49560, -9999.000
 49620, -9999.000
 49680, -9999.000
 49740, -9999.000
 49800, -9999.000
 49860, -9999.000
 49920, -9999.000
 49980, -9999.000
 50040, -9999.000
 50100, -9999.000
 50160, -9999.000
 50220, -9999.000
 50280, -9999.000
 50340, -9999.000
 50400, -9999.000
 50460, -9999.000
 50520, -9999.000
 50580, -9999.000
 50640, -9999.000
 50700, -9999.000
 50760, -9999.000
 50820, -9999.000
 50880, -9999.000
 50940, -9999.000
 51000, -9999.000
 51060, -9999.000
 51120, -9999.000
 51180, -9999.000
 51240, -9999.000
 51300, -9999.000
 51360, -9999.000
 51420, -9999.000
 51480, -9999.000
 51540, -9999.000
 51600, -9999.000
 51660, -9999.000
 51720, -9999.000
 51780, -9999.000
 51840, -9999.000
 51900, -9999.000
 51960, -9999.000
 52020, -9999.000
 52080, -9999.000
 52140, -9999.000
 52200, -9999.000
 52260, -9999.000
 52320, -9999.000
 52380, -9999.000
 52440, -9999.000
 52500, -9999.000
 52560, -9999.000
 52620, -9999.000
 52680, -9999.000
 52740, -9999.000
 52800, -9999.000
 52860, -9999.000
 52920, -9999.000
 52980, -9999.000
 53040, -9999.000
 53100, -9999.000
 53160, -9999.000
 53220, -9999.000
 53280, -9999.000
 53340, -9999.000
 53400, -9999.000
 53460, -9999.000
 53520, -9999.000
 53580, -9999.000
 53640, -9999.000
 53700, -9999.000
 53760, -9999.000
 53820, -9999.000
 53880, -9999.000
 53940, -9999.000
 54000, -9999.000
 54060, -9999.000
 54120, -9999.000
 54180, -9999.000
 54240, -9999.000
 54300, -9999.000
 54360, -9999.000
 54420, -9999.000
 54480, -9999.000
 54540, -9999.000
 54600, -9999.000
 54660, -9999.000
 54720, -9999.000
 54780, -9999.000
 54840, -9999.000
 54900, -9999.000
 54960, -9999.000
 55020, -9999.000
 55080, -9999.000
 55140, -9999.000
 55200, -9999.000
 55260, -9999.000
 55320, -9999.000
 55380, -9999.000
 55440, -9999.000
 55500, -9999.000
 55560, -9999.000
 55620, -9999.000
 55680, -9999.000
 55740, -9999.000
 55800, -9999.000
 55860, -9999.000
 55920, -9999.000
 55980, -9999.000
 56040, -9999.000
 56100, -9999.000
 56160, -9999.000
 56220, -9999.000
 56280, -9999.000
 56340, -9999.000
 56400, -9999.000
 56460, -9999.000
 56520, -9999.000
 56580, -9999.000
 56640, -9999.000
 56700, -9999.000
 56760, -9999.000
 56820, -9999.000
 56880, -9999.000
 56940, -9999.000
 57000, -9999.000
 57060, -9999.000
 57120, -9999.000
 57180, -9999.000
 57240, -9999.000
 57300, -9999.000
 57360, -9999.000
 57420, -9999.000
 57480, -9999.000
 57540, -9999.000
 57600, -9999.000
 57660, -9999.000
 57720, -9999.000
 57780, -9999.000
 57840, -9999.000
 57900, -9999.000
 57960, -9999.000
 58020, -9999.000
 58080, -9999.000
 58140, -9999.000
 58200, -9999.000
 58260, -9999.000
 58320, -9999.000
 58380, -9999.000
 58440, -9999.000
 58500, -9999.000
 58560, -9999.000
 58620, -9999.000
 58680, -9999.000
 58740, -9999.000
 58800, -9999.000
 58860, -9999.000
 58920, -9999.000
 58980, -9999.000
 59040, -9999.000
 59100, -9999.000
 59160, -9999.000
 59220, -9999.000
 59280, -9999.000
 59340, -9999.000
 59400, -9999.000
 59460, -9999.000
 59520, -9999.000
 59580, -9999.000
 59640, -9999.000
 59700, -9999.000
 59760, -9999.000
 59820, -9999.000
 59880, -9999.000
 59940, -9999.000
 60000, -9999.000
 60060, -9999.000
 60120, -9999.000
 60180, -9999.000
 60240, -9999.000
 60300, -9999.000
 60360, -9999.000
 60420, -9999.000
 60480, -9999.000
 60540, -9999.000
 60600, -9999.000
 60660, -9999.000
 60720, -9999.000
 60780, -9999.000
 60840, -9999.000
 60900, -9999.000
 60960, -9999.000
 61020, -9999.000
 61080, -9999.000
 61140, -9999.000
 61200, -9999.000
 61260, -9999.000
 61320, -9999.000
 61380, -9999.000
 61440, -9999.000
 61500, -9999.000
 61560, -9999.000
 61620, -9999.000
 61680, -9999.000
 61740, -9999.000
 61800, -9999.000
 61860, -9999.000
 61920, -9999.000
 61980, -9999.000
 62040, -9999.000
 62100, -9999.000
 62160, -9999.000
 62220, -9999.000
 62280, -9999.000
 62340, -9999.000
 62400, -9999.000
 62460, -9999.000
 62520, -9999.000
 62580, -9999.000
 62640, -9999.000
 62700, -9999.000
 62760, -9999.000
 62820, -9999.000
 62880, -9999.000
 62940, -9999.000
 63000, -9999.000
 63060, -9999.000
 63120, -9999.000
 63180, -9999.000
 63240, -9999.000
 63300, -9999.000
 63360, -9999.000
 63420, -9999.000
 63480, -9999.000
 63540, -9999.000
 63600, -9999.000
 63660, -9999.000
 63720, -9999.000
 63780, -9999.000
 63840, -9999.000
 63900, -9999.000
 63960, -9999.000
 64020, -9999.000
 64080, -9999.000
 64140, -9999.000
 64200, -9999.000
 64260, -9999.000
 64320, -9999.000
 64380, -9999.000
 64440, -9999.000
 64500, -9999.000
 64560, -9999.000
 64620, -9999.000
 64680, -9999.000
 64740, -9999.000
 64800, -9999.000
 64860, -9999.000
 64920, -9999.000
 64980, -9999.000
 65040, -9999.000
 65100, -9999.000
 65160, -9999.000
 65220, -9999.000
 65280, -9999.000
 65340, -9999.000
 65400, -9999.000
 65460, -9999.000
 65520, -9999.000
 65580, -9999.000
 65640, -9999.000
 65700, -9999.000
 65760, -9999.000
 65820, -9999.000
 65880, -9999.000
 65940, -9999.000
 66000, -9999.000
 66060, -9999.000
 66120, -9999.000
 66180, -9999.000
 66240, -9999.000
 66300, -9999.000
 66360, -9999.000
 66420, -9999.000
 66480, -9999.000
 66540, -9999.000
 66600, -9999.000
 66660, -9999.000
 66720, -9999.000
 66780, -9999.000
 66840, -9999.000
 66900, -9999.000
 66960, -9999.000
 67020, -9999.000
 67080, -9999.000
 67140, -9999.000
 67200, -9999.000
 67260, -9999.000
 67320, -9999.000
 67380, -9999.000
 67440, -9999.000
 67500, -9999.000
 67560, -9999.000
 67620, -9999.000
 67680, -9999.000
 67740, -9999.000
 67800, -9999.000
 67860, -9999.000
 67920, -9999.000
 67980, -9999.000
 68040, -9999.000
 68100, -9999.000
 68160, -9999.000
 68220, -9999.000
 68280, -9999.000
 68340, -9999.000
 68400, -9999.000
 68460, -9999.000
 68520, -9999.000
 68580, -9999.000
 68640, -9999.000
 68700, -9999.000
 68760, -9999.000
 68820, -9999.000
 68880, -9999.000
 68940, -9999.000
 69000, -9999.000
 69060, -9999.000
 69120, -9999.000
 69180, -9999.000
 69240, -9999.000
 69300, -9999.000
 69360, -9999.000
 69420, -9999.000
 69480, -9999.000
 69540, -9999.000
 69600, -9999.000
 69660, -9999.000
 69720, -9999.000
 69780, -9999.000
 69840, -9999.000
 69900, -9999.000
 69960, -9999.000
 70020, -9999.000
 70080, -9999.000
 70140, -9999.000
 70200, -9999.000
 70260, -9999.000
 70320, -9999.000
 70380, -9999.000
 70440, -9999.000
 70500, -9999.000
 70560, -9999.000
 70620, -9999.000
 70680, -9999.000
 70740, -9999.000
 70800, -9999.000
 70860, -9999.000
 70920, -9999.000
 70980,  8.553
 71040, 11.258
 71100,  7.333
 71160, -9999.000
 71220, -9999.000
 71280, -9999.000
 71340, -9999.000
 71400, -9999.000
 71460, -9999.000
 71520, -9999.000
 71580, -9999.000
 71640, -9999.000
 71700, -9999.000
 71760, -9999.000
 71820, -9999.000
 71880, -9999.000
 71940, -9999.000
 72000, -9999.000
 72060, -9999.000
 72120, -9999.000
 72180, -9999.000
 72240, -9999.000
 72300, -9999.000
 72360, -9999.000
 72420, -9999.000
 72480, -9999.000
 72540, -9999.000
 72600, -9999.000
 72660, -9999.000
 72720, -9999.000
 72780, -9999.000
 72840, -9999.000
 72900, -9999.000
 72960, -9999.000
 73020, -9999.000
 73080, -9999.000
 73140, -9999.000
 73200, -9999.000
 73260, -9999.000
 73320, -9999.000
 73380, -9999.000
 73440, -9999.000
 73500, -9999.000
 73560, -9999.000
 73620, -9999.000
 73680, -9999.000
 73740, -9999.000
 73800, -9999.000
 73860, -9999.000
 73920, -9999.000
 73980, -9999.000
 74040, -9999.000
 74100, -9999.000
 74160, -9999.000
 74220, -9999.000
 74280, -9999.000
 74340, -9999.000
 74400, -9999.000
 74460, -9999.000
 74520, -9999.000
 74580, -9999.000
 74640, -9999.000
 74700, -9999.000
 74760, -9999.000
 74820, -9999.000
 74880, 14.088
 74940, -9999.000
 75000,  9.005
 75060, 22.012
 75120, 16.521
 75180, 11.900
 75240, 11.443
 75300, 12.449
 75360, 11.072
 75420, 11.806
 75480, 10.019
 75540,  4.932
 75600,  5.873
 75660,  9.648
 75720,  7.565
 75780, 10.582
 75840,  6.094
 75900,  5.285
 75960,  9.145
 76020,  9.276
 76080,  7.843
 76140,  9.186
 76200,  6.030
 76260, 10.500
 76320,  8.561
 76380, 13.404
 76440,  6.395
 76500,  6.165
 76560, 11.182
 76620,  5.317
 76680,  8.136
 76740, 13.329
 76800, -9999.000
 76860,  3.600
 76920,  3.339
 76980,  9.891
 77040,  8.979
 77100,  8.221
 77160, 13.175
 77220, 10.729
 77280, 14.304
 77340,  8.313
 77400,  1.537
 77460,  8.226
 77520,  9.447
 77580,  3.899
 77640,  7.603
 77700, 20.099
 77760,  7.861
 77820,  9.133
 77880, 20.457
 77940, 18.156
 78000, 24.052
 78060, 26.831
 78120, 11.428
 78180, 15.705
 78240,  6.643
 78300, 10.482
 78360,  8.739
 78420,  7.540
 78480, 10.672
 78540, 10.476
 78600, 18.181
 78660, 16.121
 78720,  6.805
 78780, 12.368
 78840, 10.559
 78900, 12.930
 78960, 13.804
 79020,  7.546
 79080, 18.769
 79140, 12.490
 79200, 12.496
 79260, 10.267
 79320,  6.288
 79380,  7.148
 79440,  9.469
 79500,  0.764
 79560,  1.001
 79620,  9.962
 79680, 12.280
 79740,  2.996
 79800,  6.731
 79860,  3.675
 79920,  2.605
 79980,  4.324
 80040, 13.481
 80100,  4.876
 80160,  3.087
 80220,  8.327
 80280,  8.265
 80340,  6.364
 80400,  4.965
 80460, -9999.000
 80520, -0.493
 80580,  1.994
 80640,  3.066
 80700, -0.870
 80760,  2.433
 80820,  1.395
 80880,  5.203
 80940,  4.201
 81000,  7.288
 81060,  6.717
 81120, 11.487
 81180,  9.147
 81240,  9.631
 81300,  9.954
 81360,  6.508
 81420,  4.526
 81480,  7.457
 81540,  8.870
 81600,  8.114
 81660, -0.119
 81720,  6.236
 81780,  2.729
 81840,  8.092
 81900,  3.060
 81960,  2.662
 82020,  8.241
 82080,  7.360
 82140, 11.692
 82200, 12.092
 82260,  8.744
 82320, -9999.000
 82380,  2.463
 82440,  5.917
 82500, -9999.000
 82560, -9999.000
 82620, -9999.000
 82680, -9999.000
 82740, -9999.000
 82800, -9999.000
 82860, -9999.000
 82920, -9999.000
 82980, -9999.000
 83040, -9999.000
 83100, -9999.000
 83160, -9999.000
 83220, -9999.000
 83280, -9999.000
 83340, -9999.000
 83400, -9999.000
 83460, -9999.000
 83520, -9999.000
 83580, -9999.000
 83640, -9999.000
 83700, -9999.000
 83760, -9999.000
 83820, -9999.000
 83880, -9999.000
 83940, -9999.000
 84000, -9999.000
 84060, -9999.000
 84120, -9999.000
 84180, -9999.000
 84240, -9999.000
 84300, -9999.000
 84360, -9999.000
 84420, -9999.000
 84480, -9999.000
 84540, -9999.000
 84600, -9999.000
 84660, -9999.000
 84720, -9999.000
 84780, -9999.000
 84840, -9999.000
 84900, -9999.000
 84960, -9999.000
 85020, -9999.000
 85080, -9999.000
 85140, -9999.000
 85200, -9999.000
 85260, -9999.000
 85320, -9999.000
 85380, -9999.000
 85440, -9999.000
 85500, -9999.000
 85560, -9999.000
 85620, -9999.000
 85680, -9999.000
 85740, -9999.000
 85800, -9999.000
 85860, -9999.000
 85920, -9999.000
 85980, -9999.000
 86040, -9999.000
 86100, -9999.000
 86160, -9999.000
 86220, -9999.000
 86280, -9999.000
 86340, -9999.000
