33, 1001
Michael A Robinson, Chris Jernigan, Subi Thakali
NOAA ESRL Chemical Sciences Laboratory and CIRES, U. of Colorado
NOAA Iodide CIMS Instrument
USOS
1, 1
2024, 07, 21, 2024, 07, 23
1
starttime_UTC, seconds_past_midnight, seconds_of_day_since_00:00:00_UTC
1
1
-9999
HNO2_NOAACIMS, pptv, Gas_HNO2_InSitu_S_AVMR, 
0
18
PI_CONTACT_INFO: 325 Broadway, R/CSD 7, Boulder, Colorado 80305; michael.a.robinson@noaa.gov; chris.jernigan@noaa.gov;
PLATFORM: NOAA CSL Mobile Lab
LOCATION: SLC, Utah
ASSOCIATED_DATA: 1Hz data also available on request.
INSTRUMENT_INFO: NOAA I- ToF CIMS
DATA_INFO: All data in parts per trillion by volume (pptv). 1 Hz data is available upon request.
UNCERTAINTY: TBD
ULOD_FLAG: -7777
ULOD_VALUE: N/A
LLOD_FLAG: -8888
LLOD_VALUE: N/A
DM_CONTACT_INFO: Nathan Howard; nathan.h.howard@noaa.gov
PROJECT_INFO: USOS, summer 2024. https://csl.noaa.gov/groups/csl7/measurements/2024usos/
STIPULATIONS_ON_USE: Users are strongly encouraged to contact the PI for proper data usage.
OTHER_COMMENTS: 
REVISION: RA
RA: Preliminary Data; For in-field use only
starttime_UTC, HNO2_NOAACIMS
     0, 11.449
    60, 13.408
   120,  9.618
   180, 16.633
   240, 15.878
   300, -9999.000
   360, 30.690
   420, 49.522
   480, 60.379
   540, 53.264
   600, 47.180
   660, 50.104
   720, 67.752
   780, 68.879
   840, 54.871
   900, 68.216
   960, 54.696
  1020, 55.838
  1080, 49.863
  1140,  7.660
  1200,  8.593
  1260,  6.740
  1320,  9.115
  1380, 11.751
  1440,  9.380
  1500, 12.582
  1560, 15.328
  1620, 15.735
  1680, 14.394
  1740, 16.174
  1800, 14.807
  1860, 19.170
  1920, 16.311
  1980, 15.003
  2040, 11.532
  2100, 16.245
  2160, -9999.000
  2220, 15.636
  2280, 11.664
  2340,  9.652
  2400,  6.080
  2460, 11.872
  2520, 11.697
  2580, 12.692
  2640, 14.784
  2700, 19.681
  2760, 14.601
  2820,  5.989
  2880, 16.391
  2940, 15.246
  3000, 16.668
  3060,  9.992
  3120, 18.940
  3180, 18.021
  3240, 19.367
  3300, 20.670
  3360, 13.497
  3420, 16.862
  3480, 18.093
  3540, 21.123
  3600, 15.771
  3660,  8.517
  3720,  9.294
  3780,  7.193
  3840,  9.473
  3900, 15.747
  3960, 12.331
  4020, -9999.000
  4080, 17.531
  4140, 11.796
  4200, 10.636
  4260, 10.505
  4320, 13.796
  4380, 14.996
  4440, 13.606
  4500, 16.278
  4560, 15.079
  4620, 12.993
  4680, 15.648
  4740, 19.871
  4800, 24.469
  4860, 15.818
  4920, 13.529
  4980, 16.061
  5040, 15.908
  5100, 14.725
  5160, 14.702
  5220, 13.916
  5280, 15.405
  5340, 14.159
  5400, 13.619
  5460, 24.720
  5520, 18.511
  5580, 18.691
  5640, 20.887
  5700, 19.562
  5760, 12.339
  5820, 13.609
  5880, 13.771
  5940, 13.604
  6000, 15.177
  6060, 14.998
  6120, 14.818
  6180,  9.334
  6240, 15.678
  6300, 19.590
  6360, 18.551
  6420, 13.731
  6480, 15.699
  6540, 18.306
  6600, 12.592
  6660, 19.358
  6720, 15.801
  6780, 10.216
  6840, 14.968
  6900, 19.784
  6960, 19.107
  7020, 20.548
  7080, 16.334
  7140, 15.885
  7200, 19.075
  7260, 24.407
  7320, 21.129
  7380, 19.012
  7440, 24.440
  7500, 27.541
  7560, 21.252
  7620, 23.611
  7680, 13.731
  7740, 23.267
  7800, 21.275
  7860, 21.046
  7920, 18.704
  7980, 23.093
  8040, 25.444
  8100, 21.555
  8160, 17.209
  8220, 19.701
  8280, 19.563
  8340, 19.735
  8400, 24.035
  8460, 23.799
  8520, 20.539
  8580, 21.723
  8640, 20.316
  8700, 21.223
  8760, 24.505
  8820, 14.008
  8880, 20.090
  8940, 27.502
  9000, 24.765
  9060, 24.192
  9120, 16.156
  9180, 23.743
  9240, 22.597
  9300, 23.086
  9360, 20.633
  9420, 23.857
  9480, 22.005
  9540, -2.155
  9600, 19.053
  9660, 19.291
  9720, 13.674
  9780, 14.067
  9840, 18.614
  9900, 16.941
  9960, 15.629
 10020,  9.110
 10080,  5.816
 10140, 14.422
 10200, 13.416
 10260,  8.252
 10320,  3.695
 10380, 13.939
 10440, 10.616
 10500, 17.963
 10560, 14.140
 10620, 11.131
 10680, 17.563
 10740,  8.374
 10800, 10.854
 10860, 12.838
 10920, 17.934
 10980, 10.809
 11040, 12.176
 11100, 14.029
 11160, 12.805
 11220, 17.403
 11280, 12.645
 11340,  8.758
 11400, -9999.000
 11460, 10.470
 11520, 15.292
 11580, 10.610
 11640, 17.573
 11700, 10.597
 11760,  7.741
 11820, 12.464
 11880, 17.017
 11940, 16.819
 12000, 12.978
 12060,  9.518
 12120, 12.171
 12180, 19.660
 12240, 11.945
 12300, 13.851
 12360,  6.393
 12420, 10.018
 12480, 23.623
 12540, 13.444
 12600,  6.244
 12660, 12.864
 12720, 10.765
 12780, 17.043
 12840,  9.942
 12900, 10.931
 12960, 11.197
 13020, 15.118
 13080,  9.010
 13140, 17.325
 13200, 21.088
 13260, 22.525
 13320, 18.530
 13380,  9.278
 13440, 10.594
 13500, 15.851
 13560,  6.825
 13620,  7.506
 13680,  5.002
 13740, 10.877
 13800,  7.435
 13860, 11.872
 13920, 12.368
 13980,  9.479
 14040, 11.326
 14100,  7.672
 14160,  6.961
 14220, 11.869
 14280,  9.084
 14340,  5.467
 14400,  4.103
 14460, 14.328
 14520,  3.694
 14580, 12.757
 14640,  2.746
 14700, 11.620
 14760, 10.612
 14820,  4.918
 14880,  7.214
 14940,  3.752
 15000,  4.178
 15060, 13.299
 15120, -9999.000
 15180, 10.957
 15240,  9.079
 15300, 10.350
 15360, 12.657
 15420, 12.288
 15480, 12.305
 15540,  8.605
 15600,  9.632
 15660, 12.645
 15720,  7.707
 15780,  6.191
 15840,  8.926
 15900,  2.448
 15960,  7.574
 16020, 16.311
 16080, 11.970
 16140,  5.977
 16200, 15.100
 16260,  1.471
 16320,  5.377
 16380,  8.334
 16440,  8.236
 16500,  4.368
 16560,  7.420
 16620,  5.694
 16680,  4.679
 16740, 12.879
 16800, 14.617
 16860,  3.888
 16920, -0.564
 16980, 12.284
 17040,  8.349
 17100, 16.011
 17160,  3.781
 17220, 13.097
 17280,  8.509
 17340,  7.582
 17400,  9.497
 17460,  5.608
 17520,  5.823
 17580,  5.688
 17640,  6.761
 17700,  8.886
 17760,  3.513
 17820, 16.183
 17880,  8.229
 17940, 10.801
 18000, 19.612
 18060, -1.041
 18120,  9.028
 18180, 10.136
 18240,  9.623
 18300,  8.732
 18360,  6.172
 18420, 10.037
 18480,  8.004
 18540, 10.022
 18600, 17.598
 18660,  3.991
 18720,  8.790
 18780, -9999.000
 18840,  9.263
 18900, 13.774
 18960,  6.632
 19020,  7.704
 19080,  7.620
 19140, 10.251
 19200,  7.256
 19260, 18.443
 19320, 18.507
 19380,  3.477
 19440, 11.357
 19500, 11.908
 19560,  7.621
 19620, 12.978
 19680, 10.573
 19740, 10.550
 19800,  9.397
 19860, 11.342
 19920, 13.991
 19980,  9.457
 20040, 10.413
 20100, 16.017
 20160, 36.710
 20220, 22.199
 20280, 16.767
 20340,  9.140
 20400, 12.504
 20460,  3.594
 20520,  9.952
 20580, 11.966
 20640, -9999.000
 20700,  7.717
 20760, 16.891
 20820, 14.892
 20880,  6.901
 20940,  7.093
 21000,  6.745
 21060,  4.237
 21120,  5.825
 21180,  8.514
 21240,  6.907
 21300, 12.143
 21360, 11.267
 21420, 14.031
 21480, 13.538
 21540, 12.806
 21600, 17.407
 21660, 11.097
 21720, 17.674
 21780, 15.752
 21840, 16.033
 21900, 19.320
 21960,  9.390
 22020, 18.404
 22080, 17.373
 22140, 13.197
 22200, 14.956
 22260, 18.329
 22320, 14.424
 22380, 13.132
 22440, 16.167
 22500, -9999.000
 22560, 11.588
 22620, 17.160
 22680, 21.720
 22740, 20.288
 22800, 17.411
 22860, 22.864
 22920, 13.853
 22980, 17.048
 23040, 15.714
 23100, 16.655
 23160, 24.828
 23220, 14.456
 23280, 12.103
 23340, 10.080
 23400, 17.191
 23460, 11.129
 23520,  8.943
 23580, 12.979
 23640, 12.225
 23700, 16.061
 23760, 12.591
 23820, 10.594
 23880, 17.225
 23940,  6.566
 24000, 13.857
 24060, 13.920
 24120, 14.110
 24180, 14.151
 24240, 14.201
 24300, 19.521
 24360,  7.691
 24420, 10.273
 24480, 15.553
 24540, 12.752
 24600, 12.898
 24660, 16.199
 24720, 10.499
 24780, 17.990
 24840, 17.572
 24900,  4.905
 24960, 15.409
 25020,  6.735
 25080,  8.678
 25140, 19.828
 25200,  8.807
 25260, 16.438
 25320, 18.236
 25380,  2.236
 25440, 12.272
 25500, 10.755
 25560,  8.793
 25620, 12.887
 25680, 11.430
 25740, 12.758
 25800, 14.683
 25860,  9.145
 25920, 16.063
 25980,  1.534
 26040,  5.173
 26100, 12.585
 26160, -9999.000
 26220, 17.508
 26280, 14.904
 26340,  4.374
 26400, 13.389
 26460,  4.735
 26520, 12.136
 26580, 12.100
 26640, 11.854
 26700,  9.177
 26760, 13.731
 26820,  6.668
 26880,  9.678
 26940,  7.271
 27000,  9.826
 27060, 15.649
 27120,  9.619
 27180, 11.768
 27240, 11.268
 27300,  8.796
 27360,  7.224
 27420, 14.848
 27480,  8.251
 27540, 11.172
 27600,  8.624
 27660, 10.393
 27720, 11.208
 27780,  4.481
 27840,  6.690
 27900,  9.693
 27960,  4.666
 28020, -9999.000
 28080, 13.828
 28140,  4.730
 28200, 13.838
 28260, 11.503
 28320,  7.900
 28380, 10.584
 28440,  6.863
 28500, 13.638
 28560, 17.166
 28620,  4.625
 28680, 11.071
 28740, 11.949
 28800,  9.921
 28860, 16.631
 28920, 18.118
 28980,  6.361
 29040, 10.747
 29100,  7.699
 29160, 13.179
 29220, 16.932
 29280, 10.459
 29340, 15.350
 29400, 24.259
 29460,  6.269
 29520, 10.997
 29580, 13.021
 29640,  7.009
 29700, 15.003
 29760, 17.738
 29820, 21.760
 29880, -9999.000
 29940, 16.990
 30000, 13.109
 30060, 20.085
 30120, 17.890
 30180, 20.081
 30240, 18.943
 30300, 15.848
 30360, 21.869
 30420, 13.186
 30480, 13.331
 30540, 17.775
 30600, 25.459
 30660, 22.306
 30720, 17.844
 30780, 21.754
 30840, 11.801
 30900, 22.257
 30960, 21.853
 31020, 18.863
 31080, 17.988
 31140, 13.599
 31200, 12.358
 31260, 18.687
 31320, 12.524
 31380, 14.812
 31440, 18.794
 31500, 10.193
 31560,  7.362
 31620, 18.416
 31680, 24.011
 31740, 14.746
 31800, 23.174
 31860, 14.383
 31920, 15.097
 31980, 16.725
 32040,  8.349
 32100, 22.778
 32160, 16.389
 32220, 23.238
 32280, 16.772
 32340, 16.839
 32400, 14.302
 32460, 22.495
 32520, 24.871
 32580, 12.913
 32640, 17.520
 32700, 21.380
 32760, 15.711
 32820, 19.943
 32880, 22.507
 32940, 16.282
 33000, 22.616
 33060, 20.505
 33120, 18.714
 33180, 22.710
 33240, 21.704
 33300, 17.313
 33360, 17.701
 33420, 24.857
 33480, 19.236
 33540, 22.204
 33600, 16.842
 33660, 23.320
 33720, 23.360
 33780, 21.123
 33840, 23.361
 33900, 22.480
 33960, 22.272
 34020, 22.297
 34080, 22.536
 34140, 14.780
 34200, 11.444
 34260, 26.252
 34320, 17.978
 34380, 21.012
 34440, 17.368
 34500, 16.822
 34560, 13.711
 34620, 18.001
 34680, 15.893
 34740, 19.615
 34800, 24.557
 34860, 15.766
 34920, 14.101
 34980, 11.993
 35040, 13.816
 35100, 19.337
 35160, 26.317
 35220, 18.315
 35280, 15.239
 35340, 19.205
 35400, 18.088
 35460, 18.102
 35520, 23.912
 35580, 19.117
 35640, 11.170
 35700, 12.939
 35760, 21.041
 35820, 18.408
 35880, 14.962
 35940, 16.967
 36000, 11.928
 36060, 20.339
 36120, 16.127
 36180, 20.183
 36240, 21.001
 36300, 13.715
 36360, 14.371
 36420, 15.271
 36480, 10.374
 36540, 22.752
 36600, 21.365
 36660, 13.464
 36720, 11.046
 36780, 14.052
 36840, 19.370
 36900, 14.703
 36960, 17.166
 37020, 17.083
 37080, 10.846
 37140, 14.686
 37200, 18.191
 37260, -9999.000
 37320, 18.332
 37380, 10.836
 37440, 17.135
 37500, 14.819
 37560, 16.414
 37620, 17.306
 37680, 15.348
 37740, 21.778
 37800, 16.301
 37860, 15.276
 37920,  9.962
 37980, 25.983
 38040, 22.930
 38100, 14.863
 38160, 13.236
 38220, 23.028
 38280, 26.872
 38340, 17.555
 38400, 19.695
 38460, 22.046
 38520, 16.008
 38580, 22.501
 38640, 25.911
 38700, 18.374
 38760, 19.386
 38820, 20.518
 38880, 18.732
 38940, 25.458
 39000, 22.753
 39060, 20.547
 39120, -9999.000
 39180, 22.041
 39240, 20.544
 39300, 26.511
 39360, 29.070
 39420, 33.816
 39480, 21.749
 39540, 24.832
 39600, 21.497
 39660, 21.785
 39720, 27.544
 39780, 27.671
 39840, 19.208
 39900, 23.360
 39960, 27.738
 40020, 24.974
 40080, 27.264
 40140, 23.825
 40200, 14.674
 40260, 22.032
 40320, 25.366
 40380, 27.108
 40440, 24.482
 40500, 23.729
 40560, 15.519
 40620, 21.461
 40680, 28.803
 40740, 29.284
 40800, 28.071
 40860, 25.317
 40920, 26.505
 40980, -9999.000
 41040, 37.400
 41100, 27.176
 41160, 20.555
 41220, 21.337
 41280, 32.830
 41340, 27.685
 41400, 24.064
 41460, 23.884
 41520, 21.785
 41580, 26.488
 41640, 26.237
 41700, 24.473
 41760, 21.862
 41820, 21.678
 41880, 22.402
 41940, 26.888
 42000, 24.047
 42060, 22.651
 42120, 19.402
 42180, 26.482
 42240, 23.168
 42300, 21.184
 42360, 18.335
 42420, 20.385
 42480, 25.529
 42540, 23.245
 42600, 27.285
 42660, 18.910
 42720, 19.191
 42780, 16.451
 42840, 17.966
 42900, 23.231
 42960, 28.775
 43020, 23.292
 43080, 17.712
 43140, 21.726
 43200, 21.687
 43260, 21.693
 43320, 22.905
 43380, 22.615
 43440, 18.584
 43500, 22.979
 43560, 24.105
 43620, 25.720
 43680, 21.934
 43740, 22.801
 43800, 14.749
 43860, 22.275
 43920, 26.782
 43980, 21.937
 44040, 19.235
 44100, 20.063
 44160, 25.885
 44220, 22.432
 44280, 25.344
 44340, 16.988
 44400, 15.766
 44460, 20.403
 44520, 25.631
 44580, 20.504
 44640, -9999.000
 44700, 24.579
 44760, 16.534
 44820, 21.623
 44880, 25.927
 44940, 18.850
 45000, 16.165
 45060, 20.389
 45120, 26.757
 45180, 15.748
 45240, 18.877
 45300, 25.052
 45360, 23.790
 45420, 24.860
 45480, 22.736
 45540, 17.734
 45600, 15.515
 45660, 25.284
 45720, 29.234
 45780, 21.535
 45840, 13.931
 45900, 22.011
 45960, 23.299
 46020, 24.382
 46080, 21.945
 46140, 17.870
 46200, 22.997
 46260, 21.419
 46320, 25.515
 46380, 23.341
 46440, 12.735
 46500, -9999.000
 46560, 20.927
 46620, 18.673
 46680, 26.738
 46740, 22.606
 46800, 19.431
 46860, 33.594
 46920, 31.838
 46980, 32.940
 47040, 27.646
 47100, 20.982
 47160, 21.104
 47220, 20.940
 47280, 28.730
 47340, 23.721
 47400, 16.962
 47460, 15.612
 47520, 20.629
 47580, 20.374
 47640, 18.670
 47700, 18.290
 47760, 16.716
 47820, 16.743
 47880, 19.070
 47940, 18.997
 48000, 16.925
 48060, 16.926
 48120, 14.124
 48180, 17.661
 48240, 17.270
 48300, 15.731
 48360, -9999.000
 48420, 14.023
 48480, 13.959
 48540, 13.835
 48600, 17.268
 48660, 16.001
 48720, 17.766
 48780, 10.535
 48840,  7.228
 48900, 16.059
 48960, 17.148
 49020, 11.382
 49080, 12.812
 49140, 13.459
 49200, 17.245
 49260, 14.597
 49320,  8.833
 49380, 15.140
 49440, 16.251
 49500,  8.686
 49560, 16.511
 49620, 18.902
 49680,  3.459
 49740, 13.638
 49800, 10.465
 49860, 14.177
 49920, 14.280
 49980, 12.325
 50040,  4.677
 50100, 10.962
 50160, 19.154
 50220, 16.302
 50280, 11.974
 50340, 16.852
 50400, 19.325
 50460, 17.893
 50520, 11.526
 50580, 14.915
 50640,  9.755
 50700, 17.048
 50760, 12.503
 50820, 15.577
 50880, 17.270
 50940,  9.765
 51000,  9.901
 51060, 14.782
 51120, 16.657
 51180, 10.307
 51240, 10.728
 51300, 19.022
 51360, 18.762
 51420,  8.402
 51480, 15.936
 51540,  9.369
 51600, 10.464
 51660, 13.914
 51720, 12.091
 51780, 19.917
 51840,  9.783
 51900, 13.636
 51960, 21.333
 52020, 19.661
 52080,  8.856
 52140, 14.604
 52200, 16.620
 52260, 15.022
 52320,  9.535
 52380, 18.168
 52440, 22.081
 52500, 12.776
 52560,  7.338
 52620, 11.832
 52680, 16.035
 52740,  9.412
 52800, 11.916
 52860,  7.053
 52920, 16.841
 52980,  9.266
 53040,  4.240
 53100, 14.261
 53160, 11.709
 53220,  9.806
 53280,  4.798
 53340,  2.611
 53400, 11.684
 53460, 12.156
 53520, 12.610
 53580, 11.212
 53640, 17.437
 53700, 12.149
 53760, 14.512
 53820,  9.609
 53880, 12.239
 53940, 13.794
 54000, 21.433
 54060, 12.236
 54120, 17.362
 54180, 14.556
 54240, -9999.000
 54300, 16.740
 54360, 13.289
 54420, 14.769
 54480, 16.484
 54540, 13.851
 54600, 23.739
 54660, 16.037
 54720, 11.335
 54780, 19.547
 54840, 17.088
 54900, 13.963
 54960,  9.420
 55020, 18.200
 55080, 16.946
 55140, 21.483
 55200, 14.761
 55260, 26.623
 55320, 13.199
 55380, 14.116
 55440, 18.356
 55500, 19.728
 55560, 14.083
 55620, 15.274
 55680, 19.089
 55740, 17.972
 55800, 21.354
 55860, 16.537
 55920, 23.313
 55980, 19.296
 56040, 19.581
 56100, -9999.000
 56160, 20.514
 56220, 21.879
 56280, 11.483
 56340, 15.052
 56400, 22.566
 56460, 21.037
 56520, 25.954
 56580, 19.326
 56640, 12.600
 56700, 16.941
 56760, 25.738
 56820, 16.049
 56880, 20.274
 56940, 19.607
 57000,  7.226
 57060, 10.734
 57120, 18.906
 57180, 23.611
 57240, 20.904
 57300, 22.921
 57360, 19.323
 57420, 16.257
 57480, 23.505
 57540, 16.749
 57600, 20.684
 57660, 18.424
 57720, 16.841
 57780, 19.317
 57840, 22.755
 57900, 19.787
 57960, -9999.000
 58020, 17.888
 58080, 21.539
 58140, 17.879
 58200, 24.907
 58260, 24.109
 58320, 11.613
 58380, 22.672
 58440, 16.495
 58500, 13.960
 58560, 19.149
 58620, 25.074
 58680, 18.938
 58740, 20.924
 58800, 22.246
 58860, 23.933
 58920, 15.279
 58980, 15.625
 59040, 21.053
 59100, 17.088
 59160, 23.344
 59220, 20.914
 59280, 11.361
 59340, 19.752
 59400, 14.571
 59460, 20.049
 59520, 25.484
 59580, 20.412
 59640, 27.818
 59700, 22.915
 59760, 21.546
 59820, 22.755
 59880, 22.785
 59940, 17.668
 60000, 13.133
 60060, 21.235
 60120, 19.973
 60180, 11.934
 60240, 16.917
 60300, 18.415
 60360, 21.388
 60420, 16.708
 60480, 20.596
 60540, 26.573
 60600, 20.689
 60660,  9.960
 60720, 13.213
 60780, 17.647
 60840, 10.698
 60900, 13.853
 60960,  6.292
 61020, 17.583
 61080, 26.362
 61140, 15.784
 61200, 17.400
 61260, 13.537
 61320, 18.255
 61380, 18.692
 61440, 14.543
 61500, 11.887
 61560, 23.057
 61620, -9999.000
 61680, 19.122
 61740,  7.729
 61800, 16.441
 61860, 12.311
 61920,  5.120
 61980, 18.339
 62040, 19.775
 62100, 16.594
 62160, 21.834
 62220,  9.796
 62280, 19.878
 62340, 19.113
 62400, 15.980
 62460, 14.081
 62520, 19.434
 62580, 14.474
 62640, 17.114
 62700, 23.915
 62760, 14.789
 62820,  4.838
 62880, 14.105
 62940, 13.096
 63000,  8.842
 63060, 13.876
 63120, 25.044
 63180, 18.545
 63240, 12.104
 63300, 12.417
 63360, 18.990
 63420,  8.976
 63480, -9999.000
 63540, 17.964
 63600, 11.522
 63660,  9.455
 63720, 16.235
 63780, 15.301
 63840, 13.298
 63900, 14.462
 63960, 14.102
 64020, 16.267
 64080,  9.746
 64140,  8.830
 64200,  3.413
 64260, 10.706
 64320,  6.555
 64380, 11.333
 64440, 19.727
 64500, 20.635
 64560,  7.565
 64620, 12.774
 64680, 14.983
 64740,  9.352
 64800,  7.214
 64860, 13.760
 64920, 14.575
 64980, 15.872
 65040, 13.540
 65100, 18.569
 65160, 22.205
 65220, 11.613
 65280, 11.712
 65340, -9999.000
 65400, 26.012
 65460, 27.706
 65520, 21.209
 65580, 19.960
 65640, 12.139
 65700, 15.472
 65760, 14.382
 65820, 15.533
 65880, 10.669
 65940, 24.447
 66000, 35.865
 66060, 23.085
 66120, 29.370
 66180, 17.025
 66240, 12.847
 66300, 14.722
 66360, 21.160
 66420, 17.689
 66480, 20.802
 66540, 21.913
 66600, 22.100
 66660, 15.865
 66720, 14.514
 66780, 16.462
 66840, 22.259
 66900, 25.053
 66960, 24.795
 67020, 22.631
 67080, 25.332
 67140, 26.132
 67200, -9999.000
 67260, 25.816
 67320, 32.860
 67380, 24.685
 67440, 14.212
 67500, 16.087
 67560, 16.561
 67620, 18.696
 67680, 23.382
 67740, 19.728
 67800, 12.210
 67860, 14.405
 67920,  9.518
 67980, 17.091
 68040, 18.443
 68100, 12.349
 68160, 22.060
 68220, 12.369
 68280,  4.789
 68340,  7.226
 68400, 25.402
 68460, 15.620
 68520, 16.971
 68580, 16.640
 68640,  8.846
 68700, 17.300
 68760, 14.929
 68820, 19.911
 68880, 18.626
 68940, 11.208
 69000,  7.815
 69060, -9999.000
 69120, 18.557
 69180, 22.096
 69240, 11.906
 69300, 13.096
 69360,  3.721
 69420,  6.986
 69480,  8.606
 69540, 15.870
 69600,  6.818
 69660,  9.908
 69720, 12.042
 69780,  3.678
 69840,  5.504
 69900, 10.244
 69960, 12.293
 70020,  8.115
 70080, 11.488
 70140, 13.486
 70200,  6.649
 70260, 11.950
 70320,  9.358
 70380,  7.470
 70440, 27.309
 70500,  9.195
 70560, 12.507
 70620, 18.571
 70680,  4.774
 70740,  7.723
 70800,  7.310
 70860, 15.683
 70920, 17.760
 70980, 23.947
 71040, 43.981
 71100,  7.615
 71160,  2.567
 71220, 14.545
 71280, 23.609
 71340, 15.895
 71400, 67.371
 71460, 13.281
 71520, 21.293
 71580, 11.361
 71640, 16.151
 71700,  8.765
 71760,  1.680
 71820,  4.630
 71880, -0.974
 71940,  9.750
 72000, 10.931
 72060, 11.752
 72120,  5.093
 72180,  6.346
 72240, 12.782
 72300, 14.818
 72360, 17.222
 72420, 13.798
 72480,  7.682
 72540,  8.432
 72600, -1.212
 72660,  7.587
 72720,  4.181
 72780, -9999.000
 72840, 12.084
 72900, 17.353
 72960,  6.544
 73020, 13.345
 73080,  9.085
 73140, 10.232
 73200, 20.728
 73260, 21.639
 73320, 19.031
 73380, 14.311
 73440, 15.596
 73500, 15.202
 73560,  5.017
 73620, 12.959
 73680,  5.340
 73740, 12.927
 73800, 12.245
 73860, 18.323
 73920, 21.777
 73980, 17.844
 74040, 16.014
 74100, 18.295
 74160, 19.991
 74220, 12.467
 74280, 18.141
 74340, 16.578
 74400,  8.435
 74460, 16.631
 74520, 23.802
 74580, 22.354
 74640, 16.250
 74700, 12.643
 74760, 13.379
 74820, 20.760
 74880, 11.020
 74940, 16.210
 75000, 10.673
 75060,  7.462
 75120, 43.830
 75180, 56.487
 75240, 31.565
 75300,  5.767
 75360, 13.871
 75420, 14.202
 75480, 21.048
 75540, 17.310
 75600,  2.396
 75660,  9.746
 75720, 16.197
 75780, 12.304
 75840, 16.415
 75900, 19.702
 75960, 16.005
 76020, 17.736
 76080, 18.298
 76140, 15.441
 76200, 10.815
 76260, 15.898
 76320, 13.986
 76380,  7.670
 76440, -9999.000
 76500, 25.780
 76560, 14.151
 76620, 12.396
 76680, 12.671
 76740, 25.634
 76800, 18.056
 76860, 18.032
 76920, 16.595
 76980, 12.154
 77040,  8.603
 77100, 14.636
 77160, 20.252
 77220,  3.805
 77280, 10.914
 77340,  7.152
 77400,  1.909
 77460,  2.035
 77520, 11.198
 77580, 17.425
 77640,  2.902
 77700, 13.730
 77760, 12.013
 77820, 15.186
 77880, 18.074
 77940, 18.716
 78000, 14.957
 78060,  9.154
 78120, 13.291
 78180, 12.541
 78240,  8.477
 78300, 15.336
 78360, 13.706
 78420,  6.091
 78480, 11.480
 78540,  7.937
 78600,  7.326
 78660, 48.468
 78720, 44.158
 78780, 13.884
 78840,  6.121
 78900, 11.725
 78960, 12.691
 79020,  8.855
 79080, 16.088
 79140, 11.870
 79200, 10.997
 79260, 42.416
 79320,  9.587
 79380, 25.323
 79440, 45.239
 79500, 24.636
 79560, 23.323
 79620,  2.868
 79680, 16.024
 79740, 17.004
 79800, 10.014
 79860, 11.999
 79920, 11.341
 79980,  1.633
 80040,  0.274
 80100, 11.437
 80160, -9999.000
 80220,  0.875
 80280,  7.176
 80340, 19.031
 80400, 34.349
 80460, 41.856
 80520,  5.837
 80580, 15.816
 80640, 15.679
 80700,  6.571
 80760,  7.971
 80820,  5.433
 80880,  3.346
 80940,  8.006
 81000,  7.356
 81060, 11.414
 81120, 14.632
 81180, 16.302
 81240,  9.746
 81300, 11.461
 81360,  3.486
 81420,  6.043
 81480, 14.533
 81540,  1.008
 81600,  4.095
 81660,  0.554
 81720,  2.396
 81780,  6.990
 81840,  4.003
 81900,  9.928
 81960,  8.021
 82020, -9999.000
 82080,  2.970
 82140,  5.081
 82200,  5.519
 82260,  5.886
 82320,  7.747
 82380,  6.030
 82440,  6.274
 82500, 16.957
 82560,  9.627
 82620,  7.360
 82680,  5.007
 82740,  4.291
 82800,  8.696
 82860,  5.213
 82920, 12.760
 82980, 12.351
 83040,  7.793
 83100, 10.110
 83160,  4.833
 83220,  9.506
 83280,  6.723
 83340,  8.949
 83400, 11.352
 83460, 17.911
 83520, 10.444
 83580,  9.008
 83640,  8.715
 83700,  5.474
 83760, 16.115
 83820, 12.274
 83880, -9999.000
 83940, 13.558
 84000, 13.486
 84060,  8.182
 84120,  9.267
 84180,  5.337
 84240, 15.924
 84300, 11.892
 84360, 21.920
 84420,  8.548
 84480, 15.007
 84540,  8.934
 84600, 12.430
 84660, 11.611
 84720,  5.916
 84780, 10.137
 84840,  9.350
 84900,  6.963
 84960, 11.968
 85020,  7.882
 85080, 12.785
 85140, 13.057
 85200, 15.150
 85260, 12.150
 85320,  6.124
 85380, 14.368
 85440, 16.264
 85500, 13.339
 85560, 11.889
 85620,  9.781
 85680,  5.831
 85740, -9999.000
 85800, 18.943
 85860, 19.348
 85920,  7.893
 85980,  9.577
 86040, 10.608
 86100, 12.658
 86160, 13.420
 86220,  9.529
 86280,  9.667
 86340,  6.168
