33, 1001
Michael A Robinson, Chris Jernigan, Subi Thakali
NOAA ESRL Chemical Sciences Laboratory and CIRES, U. of Colorado
NOAA Iodide CIMS Instrument
USOS
1, 1
2024, 08, 07, 2024, 08, 08
1
starttime_UTC, seconds_past_midnight, seconds_of_day_since_00:00:00_UTC
1
1
-9999
N2O5_NOAACIMS, pptv, Gas_N2O5_InSitu_S_AVMR, 
0
18
PI_CONTACT_INFO: 325 Broadway, R/CSD 7, Boulder, Colorado 80305; michael.a.robinson@noaa.gov; chris.jernigan@noaa.gov;
PLATFORM: NOAA CSL Mobile Lab
LOCATION: SLC, Utah
ASSOCIATED_DATA: 1Hz data also available on request.
INSTRUMENT_INFO: NOAA I- ToF CIMS
DATA_INFO: All data in parts per trillion by volume (pptv). 1 Hz data is available upon request.
UNCERTAINTY: TBD
ULOD_FLAG: -7777
ULOD_VALUE: N/A
LLOD_FLAG: -8888
LLOD_VALUE: N/A
DM_CONTACT_INFO: Nathan Howard; nathan.h.howard@noaa.gov
PROJECT_INFO: USOS, summer 2024. https://csl.noaa.gov/groups/csl7/measurements/2024usos/
STIPULATIONS_ON_USE: Users are strongly encouraged to contact the PI for proper data usage.
OTHER_COMMENTS: 
REVISION: RA
RA: Preliminary Data; For in-field use only
starttime_UTC, N2O5_NOAACIMS
     0, -9999.000
    60, -9999.000
   120, -9999.000
   180, -9999.000
   240, -9999.000
   300, -9999.000
   360, -9999.000
   420, -9999.000
   480, -9999.000
   540, -9999.000
   600, -9999.000
   660, -9999.000
   720, -9999.000
   780, -9999.000
   840, -9999.000
   900, -9999.000
   960, -9999.000
  1020, -9999.000
  1080, -9999.000
  1140, -9999.000
  1200, -9999.000
  1260, -9999.000
  1320, -9999.000
  1380, -9999.000
  1440, -9999.000
  1500, -9999.000
  1560, -9999.000
  1620, -9999.000
  1680, -9999.000
  1740, -9999.000
  1800, -9999.000
  1860, -9999.000
  1920, -9999.000
  1980, -9999.000
  2040, -9999.000
  2100, -9999.000
  2160, -9999.000
  2220, -9999.000
  2280, -9999.000
  2340, -9999.000
  2400, -9999.000
  2460, -9999.000
  2520, -9999.000
  2580, -9999.000
  2640, -9999.000
  2700, -9999.000
  2760, -9999.000
  2820, -9999.000
  2880, -9999.000
  2940, -9999.000
  3000, -9999.000
  3060, -9999.000
  3120, -9999.000
  3180, -9999.000
  3240, -9999.000
  3300, -9999.000
  3360, -9999.000
  3420, -9999.000
  3480, -9999.000
  3540, -9999.000
  3600, -9999.000
  3660, -9999.000
  3720, -9999.000
  3780, -9999.000
  3840, -9999.000
  3900, -9999.000
  3960, -9999.000
  4020, -9999.000
  4080, -9999.000
  4140, -9999.000
  4200, -9999.000
  4260, -9999.000
  4320, -9999.000
  4380, -9999.000
  4440, -9999.000
  4500, -9999.000
  4560, -9999.000
  4620, -9999.000
  4680, -9999.000
  4740, -9999.000
  4800, -9999.000
  4860, -9999.000
  4920, -9999.000
  4980, -9999.000
  5040, -9999.000
  5100, -9999.000
  5160, -9999.000
  5220, -9999.000
  5280, -9999.000
  5340, -9999.000
  5400, -9999.000
  5460, -9999.000
  5520, -9999.000
  5580, -9999.000
  5640, -9999.000
  5700, -9999.000
  5760, -9999.000
  5820, -9999.000
  5880, -9999.000
  5940, -9999.000
  6000, -9999.000
  6060, -9999.000
  6120, -9999.000
  6180, -9999.000
  6240,  0.481
  6300,  0.423
  6360,  0.558
  6420,  0.507
  6480,  0.480
  6540,  0.471
  6600,  0.465
  6660,  0.424
  6720,  0.330
  6780, -9999.000
  6840,  0.521
  6900,  1.171
  6960,  1.246
  7020,  1.153
  7080,  1.142
  7140,  1.243
  7200,  1.134
  7260,  0.951
  7320,  1.231
  7380,  1.414
  7440,  1.072
  7500,  1.076
  7560,  1.258
  7620,  1.421
  7680,  1.330
  7740,  1.099
  7800,  1.152
  7860,  1.705
  7920,  1.448
  7980,  1.195
  8040,  1.571
  8100,  1.505
  8160,  1.653
  8220,  1.768
  8280,  1.888
  8340,  1.750
  8400,  1.492
  8460,  1.449
  8520,  1.237
  8580,  0.999
  8640, -9999.000
  8700,  1.097
  8760,  1.394
  8820,  1.907
  8880,  1.664
  8940,  1.335
  9000,  1.299
  9060,  1.200
  9120,  1.138
  9180,  1.312
  9240,  1.241
  9300,  1.215
  9360,  1.169
  9420,  1.204
  9480,  1.200
  9540,  1.068
  9600,  0.986
  9660,  1.350
  9720,  1.376
  9780,  1.561
  9840,  1.189
  9900,  1.262
  9960,  1.139
 10020,  1.277
 10080,  1.104
 10140,  1.150
 10200,  1.228
 10260,  1.207
 10320,  1.307
 10380,  1.198
 10440,  1.002
 10500,  1.148
 10560,  0.826
 10620,  0.902
 10680,  0.765
 10740,  0.756
 10800,  0.803
 10860,  1.023
 10920,  0.815
 10980,  0.589
 11040,  0.827
 11100,  0.786
 11160,  0.905
 11220,  0.873
 11280,  0.855
 11340,  0.759
 11400,  0.637
 11460,  0.552
 11520,  0.612
 11580,  1.021
 11640,  0.847
 11700,  0.710
 11760,  0.729
 11820,  0.869
 11880,  0.461
 11940,  0.633
 12000,  0.494
 12060,  0.480
 12120,  0.662
 12180,  0.532
 12240,  0.751
 12300,  0.961
 12360,  0.464
 12420,  0.574
 12480,  0.602
 12540,  0.564
 12600,  0.391
 12660,  0.527
 12720,  0.437
 12780,  0.468
 12840,  0.381
 12900,  0.596
 12960,  0.566
 13020,  0.592
 13080,  0.613
 13140,  0.571
 13200,  0.652
 13260,  0.494
 13320,  0.565
 13380,  0.465
 13440,  0.566
 13500,  0.707
 13560,  0.565
 13620,  0.533
 13680,  0.602
 13740,  0.429
 13800,  0.578
 13860,  0.638
 13920,  0.597
 13980,  0.592
 14040,  0.562
 14100,  0.621
 14160,  0.517
 14220,  0.549
 14280,  0.542
 14340,  0.538
 14400,  0.502
 14460,  0.616
 14520,  0.732
 14580,  0.893
 14640,  0.797
 14700,  0.809
 14760,  0.730
 14820,  0.859
 14880,  1.307
 14940,  0.706
 15000,  0.786
 15060,  0.836
 15120,  0.611
 15180,  0.774
 15240,  0.771
 15300,  0.759
 15360,  0.642
 15420,  0.721
 15480,  0.725
 15540,  0.739
 15600,  0.784
 15660,  0.834
 15720,  1.007
 15780,  0.844
 15840,  0.675
 15900,  0.557
 15960,  0.612
 16020, -9999.000
 16080,  0.503
 16140,  0.592
 16200,  0.497
 16260,  0.513
 16320,  0.616
 16380,  0.494
 16440,  0.479
 16500,  0.490
 16560,  0.583
 16620,  0.551
 16680,  0.585
 16740,  0.589
 16800,  0.675
 16860,  0.861
 16920,  1.228
 16980,  1.077
 17040,  1.362
 17100,  1.510
 17160,  1.279
 17220,  1.488
 17280,  1.221
 17340,  1.272
 17400,  1.257
 17460,  1.368
 17520,  1.148
 17580,  1.114
 17640,  0.683
 17700,  0.773
 17760,  0.811
 17820,  1.185
 17880, -9999.000
 17940,  1.010
 18000,  0.782
 18060,  0.907
 18120,  1.367
 18180,  1.259
 18240,  1.432
 18300,  1.447
 18360,  1.532
 18420,  1.292
 18480,  1.487
 18540,  1.524
 18600,  1.186
 18660,  1.407
 18720,  1.648
 18780,  1.227
 18840,  1.132
 18900,  1.576
 18960,  1.485
 19020,  1.677
 19080,  2.726
 19140,  3.356
 19200,  3.900
 19260,  3.874
 19320,  4.084
 19380,  3.340
 19440,  9.676
 19500, 10.031
 19560,  8.556
 19620,  8.792
 19680,  9.438
 19740, -9999.000
 19800,  5.430
 19860,  5.656
 19920,  5.050
 19980,  4.768
 20040,  4.664
 20100,  3.631
 20160,  3.565
 20220,  3.614
 20280,  4.338
 20340,  4.682
 20400,  4.046
 20460,  3.445
 20520,  4.411
 20580,  5.131
 20640,  4.543
 20700,  3.940
 20760,  3.121
 20820,  2.441
 20880,  2.089
 20940,  2.018
 21000,  1.900
 21060,  2.587
 21120,  2.600
 21180,  2.733
 21240,  3.453
 21300,  4.472
 21360,  4.790
 21420,  5.397
 21480,  4.057
 21540,  4.551
 21600,  4.469
 21660,  4.537
 21720,  3.172
 21780,  4.774
 21840,  3.728
 21900,  3.500
 21960,  5.021
 22020,  5.197
 22080,  4.918
 22140,  4.927
 22200,  6.340
 22260,  7.041
 22320,  6.164
 22380,  6.001
 22440,  6.158
 22500,  5.469
 22560,  8.777
 22620,  9.873
 22680,  8.095
 22740,  9.058
 22800,  7.028
 22860,  8.289
 22920,  7.353
 22980,  5.796
 23040,  6.045
 23100,  5.825
 23160,  5.939
 23220,  5.913
 23280,  5.253
 23340,  4.453
 23400, -9999.000
 23460,  3.346
 23520,  4.112
 23580,  3.606
 23640,  3.304
 23700,  3.715
 23760,  3.523
 23820,  4.112
 23880,  3.404
 23940,  3.688
 24000,  4.012
 24060,  3.431
 24120,  3.432
 24180,  3.137
 24240,  3.473
 24300,  3.343
 24360,  2.964
 24420,  2.973
 24480,  2.888
 24540,  3.114
 24600,  2.760
 24660,  2.814
 24720,  2.954
 24780,  3.189
 24840,  3.039
 24900,  2.934
 24960,  2.689
 25020,  3.298
 25080,  3.626
 25140,  3.606
 25200,  3.631
 25260, -9999.000
 25320,  2.981
 25380,  3.015
 25440,  2.537
 25500,  2.734
 25560,  2.553
 25620,  2.620
 25680,  2.633
 25740,  2.648
 25800,  2.684
 25860,  2.469
 25920,  2.134
 25980,  1.732
 26040,  2.417
 26100,  2.642
 26160,  2.450
 26220,  2.399
 26280,  2.739
 26340,  2.350
 26400,  2.514
 26460,  3.044
 26520,  3.797
 26580,  4.611
 26640,  4.629
 26700,  3.886
 26760,  4.553
 26820,  8.629
 26880,  5.887
 26940,  3.953
 27000,  3.728
 27060,  3.570
 27120, -9999.000
 27180, 16.543
 27240, 10.228
 27300,  9.435
 27360,  4.814
 27420,  7.198
 27480,  7.482
 27540,  7.308
 27600,  8.095
 27660,  5.850
 27720,  5.786
 27780,  5.368
 27840,  4.916
 27900,  5.351
 27960,  5.005
 28020,  4.584
 28080,  4.522
 28140,  4.402
 28200,  4.641
 28260,  3.981
 28320,  4.223
 28380,  3.469
 28440,  3.394
 28500,  4.291
 28560,  4.107
 28620,  4.286
 28680,  4.179
 28740,  5.241
 28800,  5.722
 28860,  5.112
 28920,  4.401
 28980,  3.809
 29040,  4.343
 29100,  4.703
 29160,  4.153
 29220,  4.527
 29280,  4.541
 29340,  3.095
 29400,  4.153
 29460,  6.994
 29520,  6.700
 29580,  6.412
 29640,  6.655
 29700,  7.707
 29760,  7.468
 29820,  6.713
 29880,  6.365
 29940,  6.850
 30000,  6.886
 30060,  7.660
 30120,  7.281
 30180,  5.919
 30240,  5.972
 30300,  7.587
 30360,  7.377
 30420, 11.831
 30480, 14.329
 30540, 10.809
 30600, 12.000
 30660, 11.819
 30720, 31.804
 30780, 28.611
 30840, 26.890
 30900, 28.310
 30960, 30.514
 31020, 33.999
 31080, 26.878
 31140, 25.363
 31200, 30.158
 31260, 29.894
 31320, 28.861
 31380, 27.991
 31440, 19.663
 31500, 20.461
 31560, 19.440
 31620, 18.975
 31680, 13.850
 31740, 12.423
 31800, 13.400
 31860, 12.877
 31920, 11.814
 31980, 12.740
 32040, 12.372
 32100, 11.872
 32160, 12.018
 32220, 10.485
 32280, 11.745
 32340, 11.898
 32400, 10.637
 32460, 11.877
 32520, 12.757
 32580,  9.947
 32640,  7.265
 32700,  9.187
 32760,  7.473
 32820,  6.156
 32880,  5.261
 32940,  5.961
 33000,  6.600
 33060,  6.760
 33120,  6.528
 33180,  9.466
 33240,  8.362
 33300,  6.231
 33360,  9.213
 33420, 10.014
 33480, 11.634
 33540,  9.714
 33600,  6.892
 33660,  6.559
 33720,  6.370
 33780,  6.482
 33840,  6.712
 33900,  7.163
 33960,  6.035
 34020,  8.058
 34080,  6.235
 34140,  6.273
 34200,  7.666
 34260,  6.820
 34320,  6.107
 34380,  9.363
 34440,  7.833
 34500, -9999.000
 34560,  6.012
 34620,  5.234
 34680,  8.297
 34740,  8.770
 34800,  8.654
 34860,  8.839
 34920,  9.132
 34980,  8.819
 35040,  8.311
 35100,  7.203
 35160,  5.638
 35220,  5.294
 35280,  6.339
 35340,  6.441
 35400,  7.086
 35460,  6.508
 35520,  5.357
 35580,  7.404
 35640,  6.411
 35700,  4.802
 35760,  5.435
 35820,  5.763
 35880,  6.375
 35940,  7.529
 36000,  6.817
 36060,  6.902
 36120,  5.678
 36180,  5.381
 36240, 11.248
 36300, 15.430
 36360, 14.341
 36420, 14.306
 36480, 19.410
 36540, 26.155
 36600, 18.921
 36660, 15.715
 36720, 17.384
 36780, 14.872
 36840, 13.334
 36900, 10.251
 36960,  8.013
 37020,  6.145
 37080,  5.770
 37140,  8.816
 37200,  7.888
 37260,  8.731
 37320,  8.477
 37380,  5.767
 37440,  4.322
 37500,  4.929
 37560,  5.161
 37620,  5.041
 37680,  4.504
 37740,  4.470
 37800,  4.669
 37860,  3.810
 37920,  3.917
 37980,  3.658
 38040,  3.951
 38100,  4.943
 38160,  5.314
 38220,  4.833
 38280,  5.003
 38340,  4.417
 38400,  4.870
 38460,  5.370
 38520,  4.973
 38580,  5.423
 38640,  4.826
 38700,  4.020
 38760,  4.476
 38820,  5.270
 38880,  5.007
 38940,  5.179
 39000,  4.897
 39060,  4.957
 39120,  3.372
 39180,  4.239
 39240,  3.910
 39300,  4.011
 39360,  5.154
 39420,  5.861
 39480,  4.153
 39540,  4.668
 39600,  5.544
 39660,  7.140
 39720,  7.222
 39780,  7.095
 39840,  7.493
 39900,  6.618
 39960,  5.861
 40020,  5.286
 40080,  4.041
 40140,  5.562
 40200,  5.126
 40260,  1.855
 40320,  3.603
 40380,  2.651
 40440,  4.023
 40500,  5.876
 40560,  5.150
 40620,  4.657
 40680,  4.951
 40740,  4.576
 40800,  5.487
 40860,  9.714
 40920,  6.488
 40980,  7.172
 41040,  6.937
 41100,  6.407
 41160,  4.847
 41220,  6.894
 41280,  7.288
 41340,  9.372
 41400, 10.888
 41460, 17.386
 41520, 12.448
 41580, 10.535
 41640,  7.999
 41700,  6.136
 41760,  7.287
 41820,  7.458
 41880, -9999.000
 41940,  5.696
 42000,  5.461
 42060,  4.913
 42120,  6.097
 42180,  5.956
 42240,  6.431
 42300,  6.414
 42360,  4.371
 42420,  4.734
 42480,  6.228
 42540,  7.167
 42600,  7.842
 42660,  7.729
 42720,  6.307
 42780,  5.284
 42840,  5.996
 42900,  4.756
 42960,  4.787
 43020,  4.957
 43080,  4.035
 43140,  6.950
 43200,  9.055
 43260,  5.360
 43320,  5.277
 43380,  5.966
 43440,  4.535
 43500,  5.252
 43560,  4.179
 43620,  4.704
 43680,  6.095
 43740, -9999.000
 43800,  8.998
 43860,  9.368
 43920,  7.712
 43980,  6.449
 44040,  6.228
 44100,  8.425
 44160, 12.144
 44220, 12.192
 44280, 10.031
 44340, 11.868
 44400, 12.035
 44460, 10.772
 44520,  7.319
 44580, 10.407
 44640,  5.557
 44700,  6.050
 44760,  6.721
 44820, 10.253
 44880, 13.854
 44940, 11.716
 45000,  9.708
 45060, 10.202
 45120, 10.433
 45180,  9.238
 45240,  8.034
 45300,  6.070
 45360,  7.576
 45420,  5.991
 45480,  5.015
 45540,  4.644
 45600, -9999.000
 45660,  5.641
 45720,  6.930
 45780,  7.365
 45840,  8.185
 45900,  8.334
 45960,  8.312
 46020,  8.680
 46080,  8.468
 46140,  5.295
 46200,  4.233
 46260,  2.239
 46320,  2.607
 46380,  2.587
 46440,  2.740
 46500,  3.846
 46560,  3.813
 46620,  3.727
 46680,  3.294
 46740,  2.963
 46800, -9999.000
 46860, -9999.000
 46920, -9999.000
 46980, -9999.000
 47040, -9999.000
 47100, -9999.000
 47160, -9999.000
 47220, -9999.000
 47280, -9999.000
 47340, -9999.000
 47400, -9999.000
 47460, -9999.000
 47520, -9999.000
 47580, -9999.000
 47640, -9999.000
 47700, -9999.000
 47760, -9999.000
 47820, -9999.000
 47880, -9999.000
 47940, -9999.000
 48000, -9999.000
 48060, -9999.000
 48120, -9999.000
 48180, -9999.000
 48240, -9999.000
 48300, -9999.000
 48360, -9999.000
 48420, -9999.000
 48480, -9999.000
 48540, -9999.000
 48600, -9999.000
 48660, -9999.000
 48720, -9999.000
 48780, -9999.000
 48840, -9999.000
 48900, -9999.000
 48960, -9999.000
 49020, -9999.000
 49080, -9999.000
 49140, -9999.000
 49200, -9999.000
 49260, -9999.000
 49320, -9999.000
 49380, -9999.000
 49440, -9999.000
 49500, -9999.000
 49560, -9999.000
 49620, -9999.000
 49680, -9999.000
 49740, -9999.000
 49800, -9999.000
 49860, -9999.000
 49920, -9999.000
 49980, -9999.000
 50040, -9999.000
 50100, -9999.000
 50160, -9999.000
 50220, -9999.000
 50280, -9999.000
 50340, -9999.000
 50400, -9999.000
 50460, -9999.000
 50520, -9999.000
 50580, -9999.000
 50640, -9999.000
 50700, -9999.000
 50760, -9999.000
 50820, -9999.000
 50880, -9999.000
 50940, -9999.000
 51000, -9999.000
 51060, -9999.000
 51120, -9999.000
 51180, -9999.000
 51240, -9999.000
 51300, -9999.000
 51360, -9999.000
 51420, -9999.000
 51480, -9999.000
 51540, -9999.000
 51600, -9999.000
 51660, -9999.000
 51720, -9999.000
 51780, -9999.000
 51840, -9999.000
 51900, -9999.000
 51960, -9999.000
 52020, -9999.000
 52080, -9999.000
 52140, -9999.000
 52200, -9999.000
 52260, -9999.000
 52320, -9999.000
 52380, -9999.000
 52440, -9999.000
 52500, -9999.000
 52560, -9999.000
 52620, -9999.000
 52680, -9999.000
 52740, -9999.000
 52800, -9999.000
 52860, -9999.000
 52920, -9999.000
 52980, -9999.000
 53040, -9999.000
 53100, -9999.000
 53160, -9999.000
 53220, -9999.000
 53280, -9999.000
 53340, -9999.000
 53400, -9999.000
 53460, -9999.000
 53520, -9999.000
 53580, -9999.000
 53640, -9999.000
 53700, -9999.000
 53760, -9999.000
 53820, -9999.000
 53880, -9999.000
 53940, -9999.000
 54000, -9999.000
 54060, -9999.000
 54120, -9999.000
 54180, -9999.000
 54240, -9999.000
 54300, -9999.000
 54360, -9999.000
 54420, -9999.000
 54480, -9999.000
 54540, -9999.000
 54600, -9999.000
 54660, -9999.000
 54720, -9999.000
 54780, -9999.000
 54840, -9999.000
 54900, -9999.000
 54960, -9999.000
 55020, -9999.000
 55080, -9999.000
 55140, -9999.000
 55200, -9999.000
 55260, -9999.000
 55320, -9999.000
 55380, -9999.000
 55440, -9999.000
 55500, -9999.000
 55560, -9999.000
 55620, -9999.000
 55680, -9999.000
 55740, -9999.000
 55800, -9999.000
 55860, -9999.000
 55920, -9999.000
 55980, -9999.000
 56040, -9999.000
 56100, -9999.000
 56160, -9999.000
 56220, -9999.000
 56280, -9999.000
 56340, -9999.000
 56400, -9999.000
 56460, -9999.000
 56520, -9999.000
 56580, -9999.000
 56640, -9999.000
 56700, -9999.000
 56760, -9999.000
 56820, -9999.000
 56880, -9999.000
 56940, -9999.000
 57000, -9999.000
 57060, -9999.000
 57120, -9999.000
 57180, -9999.000
 57240, -9999.000
 57300, -9999.000
 57360, -9999.000
 57420, -9999.000
 57480, -9999.000
 57540, -9999.000
 57600, -9999.000
 57660, -9999.000
 57720, -9999.000
 57780, -9999.000
 57840, -9999.000
 57900, -9999.000
 57960, -9999.000
 58020, -9999.000
 58080, -9999.000
 58140, -9999.000
 58200, -9999.000
 58260, -9999.000
 58320, -9999.000
 58380, -9999.000
 58440, -9999.000
 58500, -9999.000
 58560, -9999.000
 58620, -9999.000
 58680, -9999.000
 58740, -9999.000
 58800, -9999.000
 58860, -9999.000
 58920, -9999.000
 58980, -9999.000
 59040, -9999.000
 59100, -9999.000
 59160, -9999.000
 59220, -9999.000
 59280, -9999.000
 59340, -9999.000
 59400, -9999.000
 59460, -9999.000
 59520, -9999.000
 59580, -9999.000
 59640, -9999.000
 59700, -9999.000
 59760, -9999.000
 59820, -9999.000
 59880, -9999.000
 59940, -9999.000
 60000, -9999.000
 60060, -9999.000
 60120, -9999.000
 60180, -9999.000
 60240, -9999.000
 60300, -9999.000
 60360, -9999.000
 60420, -9999.000
 60480, -9999.000
 60540, -9999.000
 60600, -9999.000
 60660, -9999.000
 60720, -9999.000
 60780, -9999.000
 60840, -9999.000
 60900, -9999.000
 60960, -9999.000
 61020, -9999.000
 61080, -9999.000
 61140, -9999.000
 61200, -9999.000
 61260, -9999.000
 61320, -9999.000
 61380, -9999.000
 61440, -9999.000
 61500, -9999.000
 61560, -9999.000
 61620, -9999.000
 61680, -9999.000
 61740, -9999.000
 61800, -9999.000
 61860, -9999.000
 61920, -9999.000
 61980, -9999.000
 62040, -9999.000
 62100, -9999.000
 62160, -9999.000
 62220, -9999.000
 62280, -9999.000
 62340, -9999.000
 62400, -9999.000
 62460, -9999.000
 62520, -9999.000
 62580, -9999.000
 62640, -9999.000
 62700, -9999.000
 62760, -9999.000
 62820, -9999.000
 62880, -9999.000
 62940, -9999.000
 63000, -9999.000
 63060, -9999.000
 63120, -9999.000
 63180, -9999.000
 63240, -9999.000
 63300, -9999.000
 63360, -9999.000
 63420, -9999.000
 63480, -9999.000
 63540, -9999.000
 63600, -9999.000
 63660, -9999.000
 63720, -9999.000
 63780, -9999.000
 63840, -9999.000
 63900, -9999.000
 63960, -9999.000
 64020, -9999.000
 64080, -9999.000
 64140, -9999.000
 64200, -9999.000
 64260, -9999.000
 64320, -9999.000
 64380, -9999.000
 64440, -9999.000
 64500, -9999.000
 64560, -9999.000
 64620, -9999.000
 64680, -9999.000
 64740, -9999.000
 64800, -9999.000
 64860, -9999.000
 64920, -9999.000
 64980, -9999.000
 65040, -9999.000
 65100, -9999.000
 65160, -9999.000
 65220, -9999.000
 65280, -9999.000
 65340, -9999.000
 65400, -9999.000
 65460, -9999.000
 65520, -9999.000
 65580, -9999.000
 65640, -9999.000
 65700, -9999.000
 65760, -9999.000
 65820, -9999.000
 65880, -9999.000
 65940, -9999.000
 66000, -9999.000
 66060, -9999.000
 66120, -9999.000
 66180, -9999.000
 66240, -9999.000
 66300, -9999.000
 66360, -9999.000
 66420, -9999.000
 66480, -9999.000
 66540, -9999.000
 66600, -9999.000
 66660, -9999.000
 66720, -9999.000
 66780, -9999.000
 66840, -9999.000
 66900, -9999.000
 66960, -9999.000
 67020, -9999.000
 67080, -9999.000
 67140, -9999.000
 67200, -9999.000
 67260, -9999.000
 67320, -9999.000
 67380, -9999.000
 67440, -9999.000
 67500, -9999.000
 67560, -9999.000
 67620, -9999.000
 67680, -9999.000
 67740, -9999.000
 67800, -9999.000
 67860, -9999.000
 67920, -9999.000
 67980, -9999.000
 68040, -9999.000
 68100, -9999.000
 68160, -9999.000
 68220, -9999.000
 68280, -9999.000
 68340, -9999.000
 68400, -9999.000
 68460, -9999.000
 68520, -9999.000
 68580, -9999.000
 68640, -9999.000
 68700, -9999.000
 68760, -9999.000
 68820, -9999.000
 68880, -9999.000
 68940, -9999.000
 69000, -9999.000
 69060, -9999.000
 69120, -9999.000
 69180, -9999.000
 69240, -9999.000
 69300, -9999.000
 69360, -9999.000
 69420, -9999.000
 69480, -9999.000
 69540, -9999.000
 69600, -9999.000
 69660, -9999.000
 69720, -9999.000
 69780, -9999.000
 69840, -9999.000
 69900, -9999.000
 69960, -9999.000
 70020, -9999.000
 70080, -9999.000
 70140, -9999.000
 70200, -9999.000
 70260, -9999.000
 70320, -9999.000
 70380, -9999.000
 70440, -9999.000
 70500, -9999.000
 70560, -9999.000
 70620, -9999.000
 70680, -9999.000
 70740, -9999.000
 70800, -9999.000
 70860, -9999.000
 70920, -9999.000
 70980, -9999.000
 71040, -9999.000
 71100, -9999.000
 71160, -9999.000
 71220, -9999.000
 71280, -9999.000
 71340, -9999.000
 71400, -9999.000
 71460, -9999.000
 71520, -9999.000
 71580, -9999.000
 71640, -9999.000
 71700, -9999.000
 71760, -9999.000
 71820, -9999.000
 71880, -9999.000
 71940, -9999.000
 72000, -9999.000
 72060, -9999.000
 72120, -9999.000
 72180, -9999.000
 72240, -9999.000
 72300, -9999.000
 72360, -9999.000
 72420, -9999.000
 72480, -9999.000
 72540, -9999.000
 72600, -9999.000
 72660, -9999.000
 72720, -9999.000
 72780, -9999.000
 72840, -9999.000
 72900, -9999.000
 72960, -9999.000
 73020, -9999.000
 73080, -9999.000
 73140, -9999.000
 73200, -9999.000
 73260, -9999.000
 73320, -9999.000
 73380, -9999.000
 73440, -9999.000
 73500, -9999.000
 73560, -9999.000
 73620, -9999.000
 73680, -9999.000
 73740, -9999.000
 73800, -9999.000
 73860, -9999.000
 73920, -9999.000
 73980, -9999.000
 74040, -9999.000
 74100, -9999.000
 74160, -9999.000
 74220, -9999.000
 74280, -9999.000
 74340, -9999.000
 74400, -9999.000
 74460, -9999.000
 74520, -9999.000
 74580, -9999.000
 74640, -9999.000
 74700, -9999.000
 74760, -9999.000
 74820, -9999.000
 74880, -9999.000
 74940, -9999.000
 75000, -9999.000
 75060, -9999.000
 75120, -9999.000
 75180, -9999.000
 75240, -9999.000
 75300, -9999.000
 75360, -9999.000
 75420, -9999.000
 75480, -9999.000
 75540, -9999.000
 75600, -9999.000
 75660, -9999.000
 75720, -9999.000
 75780, -9999.000
 75840, -9999.000
 75900, -9999.000
 75960, -9999.000
 76020, -9999.000
 76080, -9999.000
 76140, -9999.000
 76200, -9999.000
 76260, -9999.000
 76320, -9999.000
 76380, -9999.000
 76440, -9999.000
 76500, -9999.000
 76560, -9999.000
 76620, -9999.000
 76680, -9999.000
 76740, -9999.000
 76800, -9999.000
 76860, -9999.000
 76920, -9999.000
 76980, -9999.000
 77040, -9999.000
 77100, -9999.000
 77160, -9999.000
 77220, -9999.000
 77280, -9999.000
 77340, -9999.000
 77400, -9999.000
 77460, -9999.000
 77520, -9999.000
 77580, -9999.000
 77640, -9999.000
 77700, -9999.000
 77760, -9999.000
 77820, -9999.000
 77880, -9999.000
 77940, -9999.000
 78000, -9999.000
 78060, -9999.000
 78120, -9999.000
 78180, -9999.000
 78240, -9999.000
 78300, -9999.000
 78360, -9999.000
 78420, -9999.000
 78480, -9999.000
 78540, -9999.000
 78600, -9999.000
 78660, -9999.000
 78720, -9999.000
 78780, -9999.000
 78840, -9999.000
 78900, -9999.000
 78960, -9999.000
 79020, -9999.000
 79080, -9999.000
 79140, -9999.000
 79200, -9999.000
 79260, -9999.000
 79320, -9999.000
 79380, -9999.000
 79440, -9999.000
 79500, -9999.000
 79560, -9999.000
 79620, -9999.000
 79680, -9999.000
 79740, -9999.000
 79800, -9999.000
 79860, -9999.000
 79920, -9999.000
 79980, -9999.000
 80040, -9999.000
 80100, -9999.000
 80160, -9999.000
 80220, -9999.000
 80280, -9999.000
 80340, -9999.000
 80400, -9999.000
 80460, -9999.000
 80520, -9999.000
 80580, -9999.000
 80640, -9999.000
 80700, -9999.000
 80760, -9999.000
 80820, -9999.000
 80880, -9999.000
 80940, -9999.000
 81000, -9999.000
 81060, -9999.000
 81120, -9999.000
 81180, -9999.000
 81240, -9999.000
 81300, -9999.000
 81360, -9999.000
 81420, -9999.000
 81480, -9999.000
 81540, -9999.000
 81600, -9999.000
 81660, -9999.000
 81720, -9999.000
 81780, -9999.000
 81840, -9999.000
 81900, -9999.000
 81960, -9999.000
 82020, -9999.000
 82080, -9999.000
 82140, -9999.000
 82200, -9999.000
 82260, -9999.000
 82320, -9999.000
 82380, -9999.000
 82440, -9999.000
 82500, -9999.000
 82560, -9999.000
 82620, -9999.000
 82680, -9999.000
 82740, -9999.000
 82800, -9999.000
 82860, -9999.000
 82920, -9999.000
 82980, -9999.000
 83040, -9999.000
 83100, -9999.000
 83160, -9999.000
 83220, -9999.000
 83280, -9999.000
 83340, -9999.000
 83400, -9999.000
 83460, -9999.000
 83520, -9999.000
 83580, -9999.000
 83640, -9999.000
 83700, -9999.000
 83760, -9999.000
 83820, -9999.000
 83880, -9999.000
 83940, -9999.000
 84000, -9999.000
 84060, -9999.000
 84120, -9999.000
 84180, -9999.000
 84240, -9999.000
 84300, -9999.000
 84360, -9999.000
 84420, -9999.000
 84480, -9999.000
 84540, -9999.000
 84600, -9999.000
 84660, -9999.000
 84720, -9999.000
 84780, -9999.000
 84840, -9999.000
 84900, -9999.000
 84960, -9999.000
 85020, -9999.000
 85080, -9999.000
 85140, -9999.000
 85200, -9999.000
 85260, -9999.000
 85320, -9999.000
 85380, -9999.000
 85440, -9999.000
 85500, -9999.000
 85560, -9999.000
 85620, -9999.000
 85680, -9999.000
 85740, -9999.000
 85800, -9999.000
 85860, -9999.000
 85920, -9999.000
 85980, -9999.000
 86040, -9999.000
 86100, -9999.000
 86160, -9999.000
 86220, -9999.000
 86280, -9999.000
 86340, -9999.000
