33, 1001
Michael A Robinson, Chris Jernigan, Subi Thakali
NOAA ESRL Chemical Sciences Laboratory and CIRES, U. of Colorado
NOAA Iodide CIMS Instrument
USOS
1, 1
2024, 08, 07, 2024, 08, 08
1
starttime_UTC, seconds_past_midnight, seconds_of_day_since_00:00:00_UTC
1
1
-9999
HCOOH_NOAACIMS, pptv, Gas_HCOOH_InSitu_S_AVMR, 
0
18
PI_CONTACT_INFO: 325 Broadway, R/CSD 7, Boulder, Colorado 80305; michael.a.robinson@noaa.gov; chris.jernigan@noaa.gov;
PLATFORM: NOAA CSL Mobile Lab
LOCATION: SLC, Utah
ASSOCIATED_DATA: 1Hz data also available on request.
INSTRUMENT_INFO: NOAA I- ToF CIMS
DATA_INFO: All data in parts per trillion by volume (pptv). 1 Hz data is available upon request.
UNCERTAINTY: TBD
ULOD_FLAG: -7777
ULOD_VALUE: N/A
LLOD_FLAG: -8888
LLOD_VALUE: N/A
DM_CONTACT_INFO: Nathan Howard; nathan.h.howard@noaa.gov
PROJECT_INFO: USOS, summer 2024. https://csl.noaa.gov/groups/csl7/measurements/2024usos/
STIPULATIONS_ON_USE: Users are strongly encouraged to contact the PI for proper data usage.
OTHER_COMMENTS: 
REVISION: RA
RA: Preliminary Data; For in-field use only
starttime_UTC, HCOOH_NOAACIMS
     0, 615.027
    60, 704.316
   120, 633.312
   180, 631.109
   240, 666.397
   300, 653.360
   360, 609.004
   420, 603.018
   480, 617.973
   540, 610.986
   600, 633.031
   660, 714.289
   720, 635.958
   780, 621.472
   840, 627.815
   900, 694.731
   960, 709.435
  1020, 634.225
  1080, 706.552
  1140, 719.041
  1200, 744.941
  1260, -9999.000
  1320, 691.288
  1380, 725.322
  1440, 721.291
  1500, 639.401
  1560, 613.360
  1620, 614.844
  1680, 694.863
  1740, 659.731
  1800, 679.954
  1860, 670.511
  1920, 694.135
  1980, 615.379
  2040, 650.182
  2100, 695.113
  2160, 677.076
  2220, 699.372
  2280, 662.125
  2340, 678.243
  2400, -9999.000
  2460, -9999.000
  2520, -9999.000
  2580, -9999.000
  2640, -9999.000
  2700, -9999.000
  2760, -9999.000
  2820, -9999.000
  2880, -9999.000
  2940, -9999.000
  3000, -9999.000
  3060, -9999.000
  3120, -9999.000
  3180, -9999.000
  3240, -9999.000
  3300, -9999.000
  3360, -9999.000
  3420, -9999.000
  3480, -9999.000
  3540, -9999.000
  3600, -9999.000
  3660, -9999.000
  3720, -9999.000
  3780, -9999.000
  3840, -9999.000
  3900, -9999.000
  3960, -9999.000
  4020, -9999.000
  4080, -9999.000
  4140, -9999.000
  4200, -9999.000
  4260, -9999.000
  4320, -9999.000
  4380, -9999.000
  4440, -9999.000
  4500, -9999.000
  4560, -9999.000
  4620, -9999.000
  4680, -9999.000
  4740, -9999.000
  4800, -9999.000
  4860, -9999.000
  4920, -9999.000
  4980, -9999.000
  5040, -9999.000
  5100, -9999.000
  5160, -9999.000
  5220, -9999.000
  5280, -9999.000
  5340, -9999.000
  5400, -9999.000
  5460, -9999.000
  5520, -9999.000
  5580, -9999.000
  5640, -9999.000
  5700, -9999.000
  5760, -9999.000
  5820, -9999.000
  5880, -9999.000
  5940, 628.241
  6000, 603.476
  6060, 596.269
  6120, 600.562
  6180, 645.375
  6240, 620.395
  6300, 642.965
  6360, 715.343
  6420, 733.436
  6480, 727.842
  6540, 890.787
  6600, 925.633
  6660, 921.640
  6720, 907.257
  6780, -9999.000
  6840, 868.994
  6900, 881.941
  6960, 882.755
  7020, 908.363
  7080, 928.992
  7140, 940.314
  7200, 1005.960
  7260, 940.889
  7320, 968.473
  7380, 964.758
  7440, 1020.155
  7500, 1015.420
  7560, 1040.836
  7620, 1050.362
  7680, 1033.682
  7740, 951.821
  7800, 942.905
  7860, 1011.692
  7920, 1132.788
  7980, 1094.790
  8040, 1105.476
  8100, 1123.423
  8160, 1153.480
  8220, 1128.500
  8280, 1104.737
  8340, 1121.672
  8400, 1170.254
  8460, 1247.818
  8520, 1227.542
  8580, 1252.784
  8640, -9999.000
  8700, 1259.261
  8760, 1243.802
  8820, 1294.156
  8880, 1275.723
  8940, 1280.952
  9000, 1306.086
  9060, 1203.054
  9120, 1147.748
  9180, 1161.295
  9240, 1201.435
  9300, 1133.135
  9360, 1101.520
  9420, 1120.343
  9480, 1101.398
  9540, 1074.986
  9600, 1062.007
  9660, 1061.718
  9720, 1053.189
  9780, 1069.953
  9840, 1089.527
  9900, 1042.916
  9960, 1076.302
 10020, 1119.216
 10080, 1099.265
 10140, 1112.360
 10200, 1099.221
 10260, 1057.625
 10320, 1094.526
 10380, 1103.743
 10440, 1109.713
 10500, 1068.193
 10560, 1083.407
 10620, 1129.329
 10680, 1111.834
 10740, 1080.700
 10800, 1097.555
 10860, 1091.088
 10920, 1085.241
 10980, 1090.607
 11040, 1108.261
 11100, 1096.871
 11160, 1107.676
 11220, 1100.870
 11280, 1104.744
 11340, 1132.850
 11400, 1101.190
 11460, 1110.251
 11520, 1079.035
 11580, 1104.182
 11640, 1090.494
 11700, 1101.959
 11760, 1123.465
 11820, 1122.320
 11880, 1106.186
 11940, 1102.727
 12000, 1100.414
 12060, 1104.791
 12120, 1097.497
 12180, 1120.392
 12240, 1124.157
 12300, 1102.433
 12360, 1148.631
 12420, 1146.980
 12480, 1176.812
 12540, 1171.032
 12600, 1147.440
 12660, 1172.984
 12720, 1160.134
 12780, 1158.242
 12840, 1174.117
 12900, 1137.890
 12960, 1173.153
 13020, 1173.339
 13080, 1155.267
 13140, 1182.983
 13200, 1143.176
 13260, 1162.810
 13320, 1177.764
 13380, 1167.770
 13440, 1151.779
 13500, 1141.962
 13560, 1174.967
 13620, 1160.891
 13680, 1168.066
 13740, 1166.699
 13800, 1170.157
 13860, 1189.451
 13920, 1201.874
 13980, 1181.210
 14040, 1197.147
 14100, 1183.060
 14160, 1220.893
 14220, 1204.122
 14280, 1228.150
 14340, 1237.189
 14400, 1259.483
 14460, 1196.992
 14520, 1230.770
 14580, 1217.852
 14640, 1212.759
 14700, 1197.641
 14760, 1234.776
 14820, 1263.551
 14880, 1229.525
 14940, 1246.811
 15000, 1263.918
 15060, 1249.547
 15120, 1243.088
 15180, 1270.332
 15240, 1256.140
 15300, 1250.587
 15360, 1279.232
 15420, 1299.213
 15480, 1276.835
 15540, 1268.692
 15600, 1249.582
 15660, 1244.538
 15720, 1277.254
 15780, 1243.229
 15840, 1288.703
 15900, 1319.550
 15960, 1291.957
 16020, -9999.000
 16080, 1282.703
 16140, 1293.141
 16200, 1301.800
 16260, 1317.726
 16320, 1295.645
 16380, 1328.744
 16440, 1314.090
 16500, 1349.132
 16560, 1343.661
 16620, 1347.397
 16680, 1330.542
 16740, 1432.458
 16800, 1487.912
 16860, 1514.626
 16920, 1581.760
 16980, 1530.939
 17040, 1415.611
 17100, 1457.569
 17160, 1542.027
 17220, 1587.696
 17280, 1592.591
 17340, 1534.321
 17400, 1354.842
 17460, 1351.483
 17520, 1382.564
 17580, 1363.792
 17640, 1371.855
 17700, 1375.611
 17760, 1357.858
 17820, 1460.679
 17880, -9999.000
 17940, 1455.933
 18000, 1509.463
 18060, 1537.972
 18120, 1555.193
 18180, 1517.155
 18240, 1519.885
 18300, 1620.348
 18360, 1560.750
 18420, 1535.675
 18480, 1547.387
 18540, 1531.374
 18600, 1441.097
 18660, 1452.026
 18720, 1409.543
 18780, 1430.900
 18840, 1462.989
 18900, 1462.417
 18960, 1510.582
 19020, 1467.796
 19080, 1501.046
 19140, 1556.223
 19200, 1629.005
 19260, 1601.995
 19320, 1538.915
 19380, 1603.631
 19440, 1658.976
 19500, 1721.666
 19560, 1716.766
 19620, 1749.931
 19680, 1766.450
 19740, -9999.000
 19800, 1636.506
 19860, 1590.121
 19920, 1653.206
 19980, 1628.027
 20040, 1574.553
 20100, 1583.547
 20160, 1622.178
 20220, 1623.346
 20280, 1672.429
 20340, 1648.750
 20400, 1681.697
 20460, 1699.647
 20520, 1667.394
 20580, 1680.026
 20640, 1663.567
 20700, 1670.959
 20760, 1654.536
 20820, 1604.875
 20880, 1569.282
 20940, 1542.070
 21000, 1487.144
 21060, 1496.102
 21120, 1521.596
 21180, 1529.133
 21240, 1528.127
 21300, 1544.198
 21360, 1573.503
 21420, 1598.515
 21480, 1636.760
 21540, 1586.083
 21600, 1624.027
 21660, 1659.280
 21720, 1695.234
 21780, 1640.413
 21840, 1614.098
 21900, 1634.787
 21960, 1656.981
 22020, 1651.314
 22080, 1663.895
 22140, 1692.516
 22200, 1667.659
 22260, 1660.797
 22320, 1684.764
 22380, 1716.186
 22440, 1735.876
 22500, 1761.364
 22560, 1751.928
 22620, 1738.729
 22680, 1770.537
 22740, 1779.567
 22800, 1819.401
 22860, 1825.971
 22920, 1868.094
 22980, 1995.809
 23040, 1999.036
 23100, 2121.112
 23160, 2107.499
 23220, 2059.966
 23280, 2125.553
 23340, 2067.903
 23400, -9999.000
 23460, 2085.515
 23520, 2035.167
 23580, 2038.766
 23640, 2065.212
 23700, 1992.633
 23760, 1968.172
 23820, 1892.028
 23880, 1898.153
 23940, 1842.186
 24000, 1877.500
 24060, 1960.803
 24120, 1907.469
 24180, 1921.596
 24240, 1890.991
 24300, 1906.480
 24360, 1960.988
 24420, 1889.625
 24480, 1869.839
 24540, 1921.317
 24600, 2066.142
 24660, 1974.095
 24720, 1915.322
 24780, 1914.180
 24840, 1904.104
 24900, 1898.180
 24960, 1980.060
 25020, 1972.850
 25080, 1953.587
 25140, 1956.080
 25200, 2027.065
 25260, -9999.000
 25320, 2010.516
 25380, 2025.319
 25440, 2036.859
 25500, 2034.576
 25560, 2060.540
 25620, 2144.047
 25680, 2151.451
 25740, 2140.027
 25800, 2195.657
 25860, 2184.871
 25920, 2367.998
 25980, 2337.081
 26040, 2312.626
 26100, 2341.911
 26160, 2223.455
 26220, 2156.189
 26280, 2202.418
 26340, 2132.132
 26400, 2159.833
 26460, 2223.836
 26520, 1872.681
 26580, 2173.800
 26640, 2244.621
 26700, 2222.784
 26760, 2185.066
 26820, 2281.682
 26880, 2169.400
 26940, 1947.059
 27000, 2046.502
 27060, 2068.906
 27120, -9999.000
 27180, 2128.751
 27240, 1984.844
 27300, 2011.849
 27360, 2244.506
 27420, 2225.696
 27480, 2118.922
 27540, 1947.460
 27600, 1951.776
 27660, 1888.610
 27720, 1790.327
 27780, 1949.205
 27840, 2030.100
 27900, 1885.288
 27960, 2004.477
 28020, 2203.438
 28080, 2303.110
 28140, 2264.041
 28200, 2237.732
 28260, 2205.977
 28320, 2146.655
 28380, 2301.500
 28440, 2336.722
 28500, 2206.970
 28560, 2203.668
 28620, 2281.481
 28680, 2274.396
 28740, 2243.998
 28800, 2188.052
 28860, 2153.264
 28920, 2179.738
 28980, 2219.400
 29040, 2209.780
 29100, 2188.713
 29160, 2241.997
 29220, 2329.776
 29280, 2262.266
 29340, 2276.852
 29400, 2305.383
 29460, 2256.835
 29520, 2283.833
 29580, 2329.179
 29640, 2290.624
 29700, 2317.077
 29760, 2346.986
 29820, 2397.421
 29880, 2448.577
 29940, 2463.793
 30000, 2442.545
 30060, 2418.065
 30120, 2462.614
 30180, 2462.568
 30240, 2434.493
 30300, 2452.655
 30360, 2451.012
 30420, 2448.982
 30480, 2465.166
 30540, 2454.498
 30600, 2480.721
 30660, 2501.205
 30720, 2421.953
 30780, 2336.936
 30840, 2413.496
 30900, 2408.772
 30960, 2442.260
 31020, 2326.176
 31080, 2210.206
 31140, 2243.908
 31200, 2180.544
 31260, 2199.720
 31320, 2196.320
 31380, 2067.628
 31440, 2107.895
 31500, 2030.869
 31560, 1961.966
 31620, 1956.445
 31680, 1957.817
 31740, 2002.392
 31800, 1925.460
 31860, 1931.050
 31920, 1906.412
 31980, 1841.044
 32040, 1850.899
 32100, 1863.204
 32160, 1799.910
 32220, 1757.234
 32280, 1778.045
 32340, 1746.669
 32400, 1818.212
 32460, 1759.142
 32520, 1735.080
 32580, 1783.106
 32640, 1827.591
 32700, 1704.425
 32760, 1707.313
 32820, 1739.556
 32880, 1724.298
 32940, 1703.124
 33000, 1746.375
 33060, 1861.143
 33120, 1829.634
 33180, 1775.903
 33240, 1767.796
 33300, 1792.387
 33360, 1786.973
 33420, 1848.621
 33480, 1797.649
 33540, 1839.190
 33600, 1878.874
 33660, 1905.982
 33720, 1926.414
 33780, 1993.137
 33840, 1948.714
 33900, 1919.517
 33960, 2117.342
 34020, 2089.928
 34080, 2237.017
 34140, 2179.874
 34200, 2157.187
 34260, 2115.432
 34320, 2107.330
 34380, 2067.823
 34440, 2145.975
 34500, -9999.000
 34560, 2108.870
 34620, 2105.584
 34680, 2065.135
 34740, 1869.033
 34800, 1941.232
 34860, 1866.090
 34920, 1862.166
 34980, 1862.169
 35040, 1899.170
 35100, 2037.126
 35160, 2291.800
 35220, 2407.247
 35280, 2353.524
 35340, 2378.798
 35400, 2268.527
 35460, 2298.811
 35520, 2329.093
 35580, 2253.427
 35640, 2220.982
 35700, 2171.287
 35760, 2194.204
 35820, 2395.444
 35880, 2341.773
 35940, 2271.756
 36000, 2287.707
 36060, 2283.735
 36120, 2319.789
 36180, 2319.728
 36240, 2276.920
 36300, 2343.404
 36360, 2479.053
 36420, 2470.024
 36480, 2500.382
 36540, 2425.808
 36600, 2445.057
 36660, 2445.235
 36720, 2455.461
 36780, 2442.336
 36840, 2452.393
 36900, 2347.113
 36960, 2367.467
 37020, 2394.068
 37080, 2411.321
 37140, 2497.174
 37200, 2392.530
 37260, 2311.875
 37320, 2333.119
 37380, 2399.272
 37440, 2404.064
 37500, 2245.577
 37560, 2211.952
 37620, 2190.575
 37680, 2243.364
 37740, 2285.842
 37800, 2263.214
 37860, 2260.953
 37920, 2041.902
 37980, 2312.816
 38040, 2290.434
 38100, 2302.056
 38160, 2374.432
 38220, 2486.403
 38280, 2519.550
 38340, 2537.996
 38400, 2495.839
 38460, 2496.525
 38520, 2564.943
 38580, 2598.598
 38640, 2580.771
 38700, 2450.901
 38760, 2501.759
 38820, 2503.864
 38880, 2600.100
 38940, 2609.213
 39000, 2610.634
 39060, 2588.426
 39120, 2612.879
 39180, 2454.024
 39240, 2548.916
 39300, 2610.676
 39360, 2616.676
 39420, 2663.984
 39480, 2723.098
 39540, 2714.303
 39600, 2690.355
 39660, 2642.741
 39720, 2616.154
 39780, 2644.167
 39840, 2647.250
 39900, 2611.537
 39960, 2637.302
 40020, 2665.015
 40080, 2595.092
 40140, 2614.272
 40200, 2599.843
 40260, 2613.452
 40320, 2601.357
 40380, 2622.281
 40440, 2726.625
 40500, 2711.188
 40560, 2704.894
 40620, 2644.959
 40680, 2660.272
 40740, 2680.252
 40800, 2621.744
 40860, 2446.811
 40920, 2649.564
 40980, 2649.891
 41040, 2626.275
 41100, 2800.502
 41160, 2938.569
 41220, 2903.438
 41280, 2824.697
 41340, 2798.207
 41400, 2696.228
 41460, 2619.928
 41520, 2615.441
 41580, 2650.352
 41640, 2690.365
 41700, 2648.773
 41760, 2525.796
 41820, 2405.536
 41880, -9999.000
 41940, 2306.998
 42000, 2407.506
 42060, 2310.555
 42120, 2285.174
 42180, 2195.310
 42240, 2193.623
 42300, 2211.885
 42360, 2209.242
 42420, 2265.212
 42480, 2385.720
 42540, 2431.991
 42600, 2437.835
 42660, 2507.797
 42720, 2503.912
 42780, 2430.605
 42840, 2456.798
 42900, 2466.706
 42960, 2443.124
 43020, 2392.524
 43080, 2461.714
 43140, 2402.890
 43200, 2391.443
 43260, 2407.620
 43320, 2400.961
 43380, 2448.851
 43440, 2492.262
 43500, 2480.896
 43560, 2453.475
 43620, 2435.501
 43680, 2436.042
 43740, -9999.000
 43800, 2500.167
 43860, 2528.651
 43920, 2538.002
 43980, 2541.763
 44040, 2533.195
 44100, 2499.744
 44160, 2435.668
 44220, 2480.824
 44280, 2497.619
 44340, 2479.477
 44400, 2496.235
 44460, 2513.854
 44520, 2508.317
 44580, 2536.816
 44640, 2491.676
 44700, 2510.496
 44760, 2492.352
 44820, 2551.107
 44880, 2569.702
 44940, 2565.198
 45000, 2508.506
 45060, 2463.086
 45120, 2468.990
 45180, 2481.549
 45240, 2449.691
 45300, 2437.471
 45360, 2437.469
 45420, 2355.225
 45480, 2327.383
 45540, 2284.088
 45600, -9999.000
 45660, 2282.993
 45720, 2359.000
 45780, 2404.571
 45840, 2463.068
 45900, 2525.258
 45960, 2531.737
 46020, 2477.107
 46080, 2476.189
 46140, 2532.010
 46200, 2486.314
 46260, 2461.065
 46320, 2423.421
 46380, 2458.299
 46440, 2424.442
 46500, 2301.239
 46560, 2316.358
 46620, 2304.347
 46680, 2253.722
 46740, 2296.915
 46800, 2625.890
 46860, 3058.904
 46920, 2823.240
 46980, 2672.299
 47040, 2508.930
 47100, 2442.896
 47160, 2376.800
 47220, 2310.997
 47280, 2308.480
 47340, 2268.667
 47400, 2251.543
 47460, 2221.583
 47520, 2146.073
 47580, 2137.220
 47640, 2113.843
 47700, 2082.912
 47760, 2086.735
 47820, 2060.168
 47880, 2048.756
 47940, 2054.532
 48000, 2040.248
 48060, 2080.608
 48120, 2202.778
 48180, 2276.637
 48240, 2323.876
 48300, 2369.742
 48360, 2265.734
 48420, 2275.585
 48480, 2214.002
 48540, 2132.679
 48600, 2139.123
 48660, 2125.163
 48720, 2175.359
 48780, 2259.452
 48840, 2376.380
 48900, 2365.248
 48960, 2407.059
 49020, 2292.858
 49080, 2223.618
 49140, 2211.178
 49200, 2126.965
 49260, -9999.000
 49320, 2062.695
 49380, 2056.403
 49440, 2155.575
 49500, 2167.411
 49560, 2106.614
 49620, 2090.856
 49680, 2026.941
 49740, 2047.110
 49800, 2127.532
 49860, 2191.809
 49920, 2055.878
 49980, 2138.751
 50040, 2177.966
 50100, 2080.773
 50160, 2129.843
 50220, 2100.161
 50280, 2088.172
 50340, 2126.859
 50400, 2040.714
 50460, 2061.981
 50520, 2048.718
 50580, 2186.420
 50640, 2145.796
 50700, 2090.165
 50760, 2048.443
 50820, 2202.210
 50880, 2306.307
 50940, 2550.110
 51000, 2533.205
 51060, 2412.981
 51120, -9999.000
 51180, 2138.967
 51240, 2175.798
 51300, 2196.065
 51360, 2160.580
 51420, 2238.824
 51480, 2335.205
 51540, 2393.069
 51600, 2370.782
 51660, 2341.364
 51720, 2241.348
 51780, 2173.807
 51840, 2165.331
 51900, 2248.765
 51960, 2256.080
 52020, 2133.468
 52080, 2039.947
 52140, 2056.331
 52200, 2088.092
 52260, 2047.509
 52320, 1995.076
 52380, 1991.759
 52440, 2006.417
 52500, 1998.018
 52560, 2046.181
 52620, 1912.460
 52680, 1888.954
 52740, 1873.293
 52800, 1891.301
 52860, 1973.692
 52920, 2010.342
 52980, -9999.000
 53040, 1949.517
 53100, 1998.858
 53160, 1956.231
 53220, 2000.720
 53280, 1962.418
 53340, 1995.528
 53400, 2055.677
 53460, 2031.307
 53520, 2018.917
 53580, 2049.725
 53640, 2068.720
 53700, 2016.082
 53760, 1980.063
 53820, 1947.322
 53880, 2031.345
 53940, 2056.036
 54000, 2058.007
 54060, 2074.073
 54120, 2129.949
 54180, 2129.142
 54240, 2123.819
 54300, 2120.207
 54360, 2092.053
 54420, 2088.198
 54480, 2097.498
 54540, 2096.787
 54600, 2086.936
 54660, 2129.717
 54720, 2162.155
 54780, 2196.220
 54840, 2075.655
 54900, 2074.599
 54960, 2023.934
 55020, 2029.761
 55080, 2073.800
 55140, 2074.351
 55200, 2136.062
 55260, 2197.251
 55320, 2186.435
 55380, 2209.849
 55440, 2235.106
 55500, 2253.672
 55560, 2272.818
 55620, 2209.438
 55680, 2202.259
 55740, 2199.339
 55800, 2147.463
 55860, 2104.694
 55920, 2075.813
 55980, 2054.332
 56040, 2089.808
 56100, 2047.921
 56160, 2075.100
 56220, 2106.467
 56280, 2081.065
 56340, 2042.156
 56400, 2047.540
 56460, 2039.315
 56520, 2013.123
 56580, 1977.992
 56640, 1974.509
 56700, 2077.315
 56760, 2067.424
 56820, 2085.835
 56880, 2115.669
 56940, 2049.128
 57000, 2058.857
 57060, 2099.679
 57120, 2093.753
 57180, 2128.196
 57240, 2108.971
 57300, 2129.471
 57360, 2128.256
 57420, 2122.362
 57480, 2133.183
 57540, 2109.168
 57600, 2107.280
 57660, 2075.276
 57720, 2014.124
 57780, 1959.078
 57840, 1950.331
 57900, 1957.025
 57960, 1935.048
 58020, 1976.912
 58080, 1997.646
 58140, 1978.572
 58200, 1986.881
 58260, 2046.201
 58320, 2028.415
 58380, 1995.830
 58440, 2021.144
 58500, 1958.529
 58560, 2228.969
 58620, 2155.154
 58680, 2207.857
 58740, 2046.780
 58800, 2011.133
 58860, 2079.955
 58920, 2265.937
 58980, 2125.422
 59040, 2209.287
 59100, 2100.622
 59160, 2042.394
 59220, 2176.330
 59280, 2190.800
 59340, 1954.826
 59400, 2037.812
 59460, 1963.053
 59520, 2068.904
 59580, 2150.100
 59640, 2068.556
 59700, 2160.456
 59760, 2100.312
 59820, 2232.240
 59880, 2166.146
 59940, 2021.196
 60000, 2251.888
 60060, 2055.249
 60120, 1968.978
 60180, 2024.959
 60240, 2036.149
 60300, 2007.111
 60360, -9999.000
 60420, 2248.753
 60480, 2005.445
 60540, 1912.752
 60600, 1835.840
 60660, 1787.558
 60720, 1736.530
 60780, 1752.535
 60840, 1722.400
 60900, 1808.167
 60960, 2105.768
 61020, 2057.315
 61080, 2147.094
 61140, 2118.457
 61200, 2164.645
 61260, 2193.487
 61320, 2247.237
 61380, 2228.671
 61440, 2187.587
 61500, 2207.050
 61560, 2361.700
 61620, 2192.454
 61680, 2151.236
 61740, 2135.462
 61800, 2116.426
 61860, 2080.721
 61920, 2083.749
 61980, 2054.914
 62040, 2053.297
 62100, 2055.853
 62160, 2063.061
 62220, -9999.000
 62280, 2098.360
 62340, 2135.154
 62400, 2125.691
 62460, 2054.714
 62520, 2082.131
 62580, 2094.168
 62640, 2152.674
 62700, 2339.306
 62760, 2241.348
 62820, 2135.495
 62880, 2118.257
 62940, 2118.703
 63000, 2213.045
 63060, 2360.729
 63120, 2290.105
 63180, 2167.556
 63240, 2164.486
 63300, 2048.046
 63360, 1992.488
 63420, 1946.617
 63480, 1974.631
 63540, 1984.253
 63600, 1972.520
 63660, 2018.863
 63720, 1953.492
 63780, 1964.993
 63840, 1963.379
 63900, 1989.444
 63960, 2002.969
 64020, 2072.614
 64080, -9999.000
 64140, 1946.834
 64200, 1960.811
 64260, 1966.871
 64320, 1917.850
 64380, 1939.290
 64440, 2022.806
 64500, 2140.400
 64560, 2005.064
 64620, 1991.459
 64680, 2017.740
 64740, 2026.347
 64800, 2018.910
 64860, 1929.600
 64920, 1928.681
 64980, 1926.030
 65040, 2201.576
 65100, 2294.833
 65160, 2277.980
 65220, 2192.845
 65280, 2347.591
 65340, 2268.946
 65400, 2288.111
 65460, 2338.891
 65520, 2261.275
 65580, 2398.993
 65640, 2401.527
 65700, 2154.978
 65760, 2454.976
 65820, 2185.819
 65880, 2097.820
 65940, 2219.922
 66000, 2070.597
 66060, 2017.291
 66120, 2006.393
 66180, 2210.415
 66240, 2035.771
 66300, 2021.834
 66360, 2305.753
 66420, 2179.516
 66480, 2037.620
 66540, 2111.192
 66600, 2057.397
 66660, 2114.882
 66720, 2011.243
 66780, 1981.686
 66840, 2049.871
 66900, 1912.373
 66960, 1992.821
 67020, 1990.517
 67080, 2069.201
 67140, 2101.319
 67200, 1864.671
 67260, 1945.396
 67320, 2029.780
 67380, 1957.713
 67440, 2027.323
 67500, 2025.466
 67560, 1924.340
 67620, 1911.283
 67680, 1917.031
 67740, -9999.000
 67800, 1887.286
 67860, 1821.580
 67920, 1877.484
 67980, 1685.700
 68040, 1857.545
 68100, 1839.170
 68160, 1930.362
 68220, 1926.509
 68280, 1868.569
 68340, 1898.452
 68400, 1923.934
 68460, 1939.827
 68520, 1894.598
 68580, 1989.109
 68640, 1922.793
 68700, 1789.722
 68760, 1889.987
 68820, 1614.497
 68880, 1756.414
 68940, 1772.302
 69000, 1733.701
 69060, 1671.645
 69120, 1791.560
 69180, 1803.750
 69240, 1807.400
 69300, 1611.073
 69360, 1781.643
 69420, 1631.409
 69480, 1649.755
 69540, 1688.915
 69600, -9999.000
 69660, 5026.438
 69720, 2827.778
 69780, 2157.459
 69840, 2058.986
 69900, 1814.088
 69960, 1973.924
 70020, 1998.281
 70080, 1771.211
 70140, 1788.394
 70200, 1733.121
 70260, 1648.344
 70320, 1681.110
 70380, 1815.566
 70440, 1655.422
 70500, 1519.623
 70560, 1535.284
 70620, 1659.096
 70680, 1746.678
 70740, 1706.646
 70800, 1788.630
 70860, 1728.235
 70920, 1691.206
 70980, 1968.685
 71040, 1706.415
 71100, 1667.892
 71160, 1653.783
 71220, 1679.902
 71280, 1734.951
 71340, 1747.501
 71400, 1516.314
 71460, -9999.000
 71520, 1766.396
 71580, 1780.832
 71640, 1779.948
 71700, 1814.252
 71760, 1843.950
 71820, 1703.980
 71880, 1768.065
 71940, 1832.196
 72000, 1836.856
 72060, 1588.084
 72120, 1708.313
 72180, 1701.246
 72240, 1714.329
 72300, 1573.818
 72360, 1650.235
 72420, 1427.319
 72480, 1418.950
 72540, 1455.140
 72600, 1421.517
 72660, 1393.791
 72720, 1281.821
 72780, 1389.323
 72840, 1269.632
 72900, 1125.171
 72960, 1248.750
 73020, 1250.557
 73080, 1200.388
 73140, 1190.548
 73200, 1141.599
 73260, 1093.179
 73320, 1163.216
 73380, 1080.352
 73440, 1058.591
 73500, 1016.383
 73560, 1082.602
 73620, 1075.093
 73680, 1097.782
 73740, 1035.847
 73800, 842.035
 73860, 582.847
 73920, 551.577
 73980, 568.299
 74040, 558.326
 74100, 533.587
 74160, 471.265
 74220, 470.309
 74280, 477.177
 74340, 712.267
 74400, 794.724
 74460, 723.954
 74520, 709.345
 74580, 669.748
 74640, 675.092
 74700, 674.748
 74760, 644.487
 74820, 642.412
 74880, 661.287
 74940, 624.409
 75000, 599.485
 75060, 584.592
 75120, 527.636
 75180, 532.673
 75240, 551.758
 75300, 545.678
 75360, 516.784
 75420, 518.144
 75480, 477.547
 75540, 481.755
 75600, 476.521
 75660, 477.926
 75720, 463.303
 75780, 477.562
 75840, 444.457
 75900, 427.932
 75960, 388.598
 76020, 393.384
 76080, 372.598
 76140, 380.228
 76200, 378.953
 76260, 345.566
 76320, 349.363
 76380, 363.694
 76440, 363.483
 76500, 335.492
 76560, 316.810
 76620, 325.122
 76680, 437.500
 76740, 448.521
 76800, 326.488
 76860, 283.664
 76920, 278.119
 76980, 309.205
 77040, 357.361
 77100, 404.361
 77160, 349.956
 77220, 308.364
 77280, 296.719
 77340, 269.869
 77400, 258.356
 77460, 298.080
 77520, 299.366
 77580, 289.527
 77640, 273.847
 77700, 251.108
 77760, 253.637
 77820, 223.118
 77880, 209.329
 77940, 192.329
 78000, 231.236
 78060, 986.931
 78120, 251.438
 78180, 2376.584
 78240, 764.459
 78300, 603.616
 78360, 627.398
 78420, 465.335
 78480, 411.151
 78540, 376.057
 78600, 353.960
 78660, 361.332
 78720, 323.972
 78780, 316.296
 78840, -9999.000
 78900, 255.373
 78960, 263.187
 79020, 274.412
 79080, 304.346
 79140, 290.172
 79200, 298.046
 79260, 296.872
 79320, 301.703
 79380, 309.295
 79440, 324.386
 79500, 330.416
 79560, 333.867
 79620, 354.249
 79680, 358.366
 79740, 369.094
 79800, 351.757
 79860, 381.121
 79920, 389.165
 79980, 399.426
 80040, 409.287
 80100, 402.610
 80160, 418.974
 80220, 407.592
 80280, 407.454
 80340, 403.229
 80400, 385.490
 80460, 396.343
 80520, 420.693
 80580, 426.558
 80640, 443.398
 80700, 402.446
 80760, 389.706
 80820, 422.598
 80880, 432.589
 80940, 446.554
 81000, 445.176
 81060, 422.093
 81120, 425.051
 81180, 449.461
 81240, 456.857
 81300, 475.834
 81360, 488.170
 81420, 448.778
 81480, 437.415
 81540, 421.625
 81600, 419.333
 81660, 419.535
 81720, 448.960
 81780, 422.301
 81840, 397.706
 81900, 407.925
 81960, 412.165
 82020, 433.614
 82080, 448.321
 82140, 407.853
 82200, 401.880
 82260, 393.464
 82320, 436.746
 82380, 459.502
 82440, 447.227
 82500, 440.679
 82560, -9999.000
 82620, 437.610
 82680, 442.459
 82740, 453.216
 82800, 496.679
 82860, 477.675
 82920, 473.718
 82980, 437.154
 83040, 489.858
 83100, 486.701
 83160, 510.994
 83220, 500.017
 83280, 568.580
 83340, 505.441
 83400, 483.605
 83460, 469.232
 83520, 485.043
 83580, 525.462
 83640, 571.360
 83700, 597.830
 83760, 557.820
 83820, 562.393
 83880, 594.714
 83940, 552.825
 84000, 585.040
 84060, 624.073
 84120, 633.924
 84180, 620.670
 84240, 601.607
 84300, 599.796
 84360, 607.640
 84420, 586.131
 84480, 635.646
 84540, 632.877
 84600, 634.439
 84660, 671.720
 84720, 650.437
 84780, 657.383
 84840, 695.337
 84900, 702.276
 84960, 606.863
 85020, 656.310
 85080, 662.114
 85140, 644.605
 85200, 672.717
 85260, 710.255
 85320, 719.684
 85380, 713.086
 85440, 667.426
 85500, 735.495
 85560, 664.837
 85620, 675.386
 85680, 697.591
 85740, 658.767
 85800, 700.635
 85860, 697.402
 85920, 677.155
 85980, 703.499
 86040, 725.847
 86100, 718.996
 86160, 676.165
 86220, -9999.000
 86280, 588.710
 86340, 638.633
