33, 1001
Michael A Robinson, Chris Jernigan, Subi Thakali
NOAA ESRL Chemical Sciences Laboratory and CIRES, U. of Colorado
NOAA Iodide CIMS Instrument
USOS
1, 1
2024, 07, 30, 2024, 07, 31
1
starttime_UTC, seconds_past_midnight, seconds_of_day_since_00:00:00_UTC
1
1
-9999
N2O5_NOAACIMS, pptv, Gas_N2O5_InSitu_S_AVMR, 
0
18
PI_CONTACT_INFO: 325 Broadway, R/CSD 7, Boulder, Colorado 80305; michael.a.robinson@noaa.gov; chris.jernigan@noaa.gov;
PLATFORM: NOAA CSL Mobile Lab
LOCATION: SLC, Utah
ASSOCIATED_DATA: 1Hz data also available on request.
INSTRUMENT_INFO: NOAA I- ToF CIMS
DATA_INFO: All data in parts per trillion by volume (pptv). 1 Hz data is available upon request.
UNCERTAINTY: TBD
ULOD_FLAG: -7777
ULOD_VALUE: N/A
LLOD_FLAG: -8888
LLOD_VALUE: N/A
DM_CONTACT_INFO: Nathan Howard; nathan.h.howard@noaa.gov
PROJECT_INFO: USOS, summer 2024. https://csl.noaa.gov/groups/csl7/measurements/2024usos/
STIPULATIONS_ON_USE: Users are strongly encouraged to contact the PI for proper data usage.
OTHER_COMMENTS: 
REVISION: RA
RA: Preliminary Data; For in-field use only
starttime_UTC, N2O5_NOAACIMS
     0, -9999.000
    60, -9999.000
   120, -9999.000
   180, -9999.000
   240, -9999.000
   300, -9999.000
   360, -9999.000
   420, -9999.000
   480, -9999.000
   540, -9999.000
   600, -9999.000
   660, -9999.000
   720, -9999.000
   780, -9999.000
   840, -9999.000
   900, -9999.000
   960, -9999.000
  1020, -9999.000
  1080, -9999.000
  1140, -9999.000
  1200, -9999.000
  1260, -9999.000
  1320, -9999.000
  1380, -9999.000
  1440, -9999.000
  1500, -9999.000
  1560, -9999.000
  1620, -9999.000
  1680, -9999.000
  1740, -9999.000
  1800, -9999.000
  1860, -9999.000
  1920, -9999.000
  1980, -9999.000
  2040, -9999.000
  2100, -9999.000
  2160, -9999.000
  2220, -9999.000
  2280, -9999.000
  2340, -9999.000
  2400, -9999.000
  2460, -9999.000
  2520, -9999.000
  2580, -9999.000
  2640, -9999.000
  2700, -9999.000
  2760, -9999.000
  2820, -9999.000
  2880, -9999.000
  2940, -9999.000
  3000, -9999.000
  3060, -9999.000
  3120, -9999.000
  3180, -9999.000
  3240, -9999.000
  3300, -9999.000
  3360, -9999.000
  3420, -9999.000
  3480, -9999.000
  3540, -9999.000
  3600, -9999.000
  3660, -9999.000
  3720, -9999.000
  3780, -9999.000
  3840, -9999.000
  3900, -9999.000
  3960, -9999.000
  4020, -9999.000
  4080, -9999.000
  4140, -9999.000
  4200, -9999.000
  4260, -9999.000
  4320, -9999.000
  4380, -9999.000
  4440, -9999.000
  4500, -9999.000
  4560, -9999.000
  4620, -9999.000
  4680, -9999.000
  4740, -9999.000
  4800, -9999.000
  4860, -9999.000
  4920, -9999.000
  4980, -9999.000
  5040, -9999.000
  5100, -9999.000
  5160, -9999.000
  5220, -9999.000
  5280, -9999.000
  5340, -9999.000
  5400, -9999.000
  5460, -9999.000
  5520, -9999.000
  5580, -9999.000
  5640, -9999.000
  5700, -9999.000
  5760, -9999.000
  5820, -9999.000
  5880,  1.043
  5940,  1.059
  6000,  1.235
  6060,  1.179
  6120,  1.047
  6180,  0.810
  6240,  0.659
  6300,  0.954
  6360,  0.734
  6420,  0.819
  6480,  0.918
  6540,  0.962
  6600,  0.934
  6660,  0.990
  6720,  1.066
  6780,  1.122
  6840,  1.366
  6900,  1.315
  6960,  1.255
  7020,  1.751
  7080,  1.563
  7140,  1.734
  7200,  1.956
  7260,  2.021
  7320,  2.009
  7380,  1.809
  7440,  1.754
  7500,  1.707
  7560,  1.234
  7620,  1.048
  7680,  1.201
  7740,  1.501
  7800,  1.282
  7860,  1.531
  7920,  1.724
  7980,  1.347
  8040,  1.446
  8100, -9999.000
  8160,  2.128
  8220,  1.800
  8280,  1.459
  8340,  2.005
  8400,  1.396
  8460,  1.110
  8520,  1.366
  8580,  1.624
  8640,  1.735
  8700,  1.615
  8760,  1.737
  8820,  1.715
  8880,  1.822
  8940,  1.610
  9000,  2.028
  9060,  3.189
  9120,  2.487
  9180,  2.147
  9240,  2.089
  9300, -9999.000
  9360,  2.942
  9420,  4.164
  9480,  4.068
  9540,  4.026
  9600,  4.151
  9660,  5.073
  9720,  5.828
  9780,  5.484
  9840,  5.889
  9900,  6.756
  9960,  7.320
 10020,  5.099
 10080,  4.818
 10140,  6.748
 10200,  4.645
 10260,  5.441
 10320,  5.520
 10380,  7.814
 10440,  6.942
 10500,  5.348
 10560,  3.728
 10620,  3.844
 10680,  3.205
 10740,  2.645
 10800,  2.584
 10860,  2.377
 10920,  2.110
 10980,  2.575
 11040,  2.606
 11100,  2.442
 11160,  1.951
 11220,  2.012
 11280,  2.361
 11340,  2.110
 11400,  2.079
 11460,  2.375
 11520,  1.863
 11580,  1.864
 11640,  1.355
 11700,  1.401
 11760,  1.390
 11820,  1.295
 11880,  1.412
 11940,  1.245
 12000,  1.444
 12060,  1.162
 12120,  1.558
 12180,  1.372
 12240,  1.437
 12300,  1.399
 12360,  1.481
 12420,  1.244
 12480,  1.569
 12540,  1.576
 12600,  1.483
 12660,  1.224
 12720,  1.477
 12780,  1.163
 12840,  1.290
 12900,  1.118
 12960,  1.389
 13020,  1.273
 13080,  1.504
 13140,  1.455
 13200,  1.793
 13260,  1.987
 13320,  1.922
 13380,  1.660
 13440,  1.950
 13500,  1.974
 13560,  1.845
 13620,  2.164
 13680,  2.119
 13740,  2.099
 13800,  2.226
 13860,  2.273
 13920,  2.630
 13980,  2.255
 14040,  2.221
 14100,  2.243
 14160,  2.151
 14220,  1.636
 14280,  2.201
 14340,  2.581
 14400,  2.674
 14460,  2.018
 14520,  2.356
 14580,  2.188
 14640,  1.938
 14700,  2.152
 14760,  2.253
 14820,  1.945
 14880,  1.451
 14940,  1.619
 15000,  1.849
 15060,  1.749
 15120,  1.801
 15180,  2.103
 15240,  2.748
 15300,  2.621
 15360,  2.913
 15420,  2.187
 15480,  2.388
 15540,  2.184
 15600,  1.727
 15660,  1.919
 15720,  2.355
 15780,  2.386
 15840,  2.322
 15900,  2.167
 15960,  1.847
 16020,  2.294
 16080,  1.677
 16140,  2.452
 16200,  2.654
 16260,  2.273
 16320,  2.276
 16380,  1.945
 16440,  1.699
 16500,  2.161
 16560,  1.946
 16620,  2.239
 16680, -9999.000
 16740,  1.700
 16800,  1.833
 16860,  2.046
 16920,  2.157
 16980,  2.028
 17040,  1.627
 17100,  1.863
 17160,  1.919
 17220,  1.995
 17280,  1.914
 17340,  2.542
 17400,  2.009
 17460,  2.438
 17520,  1.700
 17580,  1.808
 17640,  1.880
 17700,  1.766
 17760,  1.849
 17820,  1.707
 17880,  1.761
 17940,  1.929
 18000,  1.703
 18060,  2.100
 18120,  2.657
 18180,  1.940
 18240,  1.766
 18300,  1.914
 18360,  1.816
 18420,  2.247
 18480,  2.097
 18540, -9999.000
 18600,  2.016
 18660,  1.776
 18720,  2.090
 18780,  2.095
 18840,  1.843
 18900,  2.305
 18960,  2.873
 19020,  2.960
 19080,  2.825
 19140,  2.352
 19200,  3.038
 19260,  2.312
 19320,  2.625
 19380,  2.621
 19440,  2.346
 19500,  2.212
 19560,  1.869
 19620,  2.337
 19680,  2.353
 19740,  2.212
 19800,  2.209
 19860,  2.413
 19920,  2.050
 19980,  2.660
 20040,  2.262
 20100,  2.318
 20160,  2.838
 20220,  2.374
 20280,  2.960
 20340,  3.303
 20400, -9999.000
 20460,  3.320
 20520,  3.367
 20580,  3.613
 20640,  3.262
 20700,  3.353
 20760,  3.407
 20820,  3.535
 20880,  3.958
 20940,  4.894
 21000,  9.708
 21060, 35.165
 21120, 35.748
 21180, 35.150
 21240, 35.094
 21300, 22.883
 21360, 26.246
 21420, 21.660
 21480, 22.938
 21540, 27.012
 21600, 19.521
 21660,  7.272
 21720,  9.890
 21780, 10.529
 21840,  9.219
 21900, 14.095
 21960, 13.628
 22020,  9.717
 22080,  7.840
 22140,  8.720
 22200,  6.917
 22260, 12.395
 22320, 12.660
 22380, 10.534
 22440, 13.270
 22500, 13.714
 22560, 15.527
 22620, 16.557
 22680, 17.034
 22740, 16.944
 22800, 17.024
 22860, 18.157
 22920, 11.373
 22980,  7.582
 23040, 11.054
 23100, 18.409
 23160, 25.712
 23220, 22.480
 23280, 22.873
 23340, 15.920
 23400, 18.315
 23460, 21.899
 23520, 21.402
 23580, 20.277
 23640, 15.490
 23700, 26.970
 23760, 31.056
 23820, 26.380
 23880, 24.575
 23940, 26.395
 24000, 24.900
 24060, -9999.000
 24120, 22.705
 24180, 16.823
 24240, 20.152
 24300, 23.496
 24360, 32.104
 24420, 22.441
 24480, 24.763
 24540, 34.485
 24600, 25.911
 24660, 20.018
 24720, 14.331
 24780, 13.431
 24840, 20.265
 24900, 29.883
 24960, 22.887
 25020, 17.752
 25080, 12.784
 25140, 17.123
 25200, 21.095
 25260, 20.102
 25320, 22.066
 25380, 28.618
 25440, 24.850
 25500, 18.533
 25560, 19.063
 25620, 13.383
 25680,  8.743
 25740, 10.363
 25800,  9.017
 25860,  6.708
 25920,  7.740
 25980, 10.439
 26040, 13.731
 26100, 12.520
 26160, 12.505
 26220, 12.157
 26280,  7.224
 26340,  8.148
 26400,  9.485
 26460, 11.518
 26520, 17.566
 26580,  9.758
 26640, 10.275
 26700, 15.235
 26760, 13.928
 26820, 12.025
 26880,  6.091
 26940,  9.107
 27000,  8.532
 27060,  7.732
 27120,  7.903
 27180,  7.767
 27240,  6.191
 27300,  5.698
 27360,  5.865
 27420,  5.415
 27480,  4.540
 27540,  4.491
 27600,  3.824
 27660,  3.999
 27720,  4.146
 27780, -9999.000
 27840,  3.870
 27900,  3.941
 27960,  3.660
 28020,  3.711
 28080,  4.174
 28140,  3.794
 28200,  3.145
 28260,  4.049
 28320,  3.475
 28380,  3.617
 28440,  2.970
 28500,  3.039
 28560,  3.763
 28620,  3.518
 28680,  4.271
 28740,  5.283
 28800,  4.882
 28860,  3.943
 28920,  4.249
 28980,  3.837
 29040,  4.109
 29100,  3.039
 29160,  3.547
 29220,  4.338
 29280,  3.641
 29340,  4.081
 29400,  3.478
 29460,  3.117
 29520,  3.972
 29580,  3.920
 29640,  3.099
 29700,  3.056
 29760,  3.158
 29820,  4.072
 29880,  4.300
 29940,  3.716
 30000,  3.331
 30060,  3.745
 30120,  4.008
 30180,  3.692
 30240,  4.006
 30300,  4.922
 30360,  4.506
 30420,  3.421
 30480,  3.807
 30540,  3.861
 30600,  3.617
 30660,  3.939
 30720,  3.774
 30780,  4.243
 30840,  3.815
 30900,  3.174
 30960,  3.143
 31020,  3.435
 31080,  3.161
 31140,  2.832
 31200,  2.893
 31260,  3.177
 31320,  4.004
 31380,  4.817
 31440,  6.205
 31500, 11.833
 31560,  7.051
 31620,  3.678
 31680,  3.246
 31740,  4.029
 31800,  3.682
 31860,  3.555
 31920,  4.142
 31980,  4.373
 32040,  4.376
 32100,  4.778
 32160,  6.030
 32220,  5.422
 32280,  4.375
 32340,  5.772
 32400,  5.984
 32460,  5.211
 32520,  4.480
 32580,  5.109
 32640,  4.546
 32700,  3.526
 32760,  3.560
 32820,  3.467
 32880,  2.609
 32940,  2.230
 33000,  2.136
 33060,  2.248
 33120,  2.412
 33180,  1.669
 33240,  1.781
 33300,  2.269
 33360,  2.088
 33420,  1.826
 33480,  2.136
 33540,  2.362
 33600,  2.349
 33660,  2.020
 33720,  2.438
 33780,  3.294
 33840,  2.094
 33900,  1.952
 33960,  2.030
 34020,  2.178
 34080,  2.224
 34140,  2.186
 34200,  1.960
 34260,  2.735
 34320,  2.606
 34380,  2.274
 34440,  2.411
 34500,  2.033
 34560,  1.995
 34620,  1.980
 34680,  2.281
 34740,  2.556
 34800,  2.349
 34860,  2.283
 34920,  2.346
 34980,  2.520
 35040,  2.294
 35100,  2.192
 35160, -9999.000
 35220,  2.309
 35280,  2.352
 35340,  2.589
 35400,  2.754
 35460,  2.775
 35520,  2.931
 35580,  2.741
 35640,  3.100
 35700,  3.197
 35760,  5.235
 35820,  3.419
 35880,  5.529
 35940,  5.372
 36000,  3.939
 36060,  4.462
 36120,  5.711
 36180,  5.161
 36240,  3.803
 36300,  3.394
 36360,  3.513
 36420,  3.399
 36480,  3.615
 36540,  3.474
 36600,  3.364
 36660,  3.605
 36720,  2.166
 36780,  2.561
 36840,  2.324
 36900,  2.243
 36960,  2.172
 37020, -9999.000
 37080,  3.645
 37140,  3.697
 37200,  4.807
 37260,  3.954
 37320,  3.804
 37380,  3.547
 37440,  2.946
 37500,  3.014
 37560,  3.640
 37620,  3.467
 37680,  3.277
 37740,  2.782
 37800,  3.021
 37860,  2.498
 37920,  2.254
 37980,  2.231
 38040,  2.006
 38100,  2.670
 38160,  2.365
 38220,  3.299
 38280,  3.390
 38340,  3.148
 38400,  3.011
 38460,  3.227
 38520,  3.637
 38580,  3.536
 38640,  3.441
 38700,  2.569
 38760,  1.717
 38820,  2.211
 38880, -9999.000
 38940,  4.129
 39000,  3.993
 39060,  3.381
 39120,  3.013
 39180,  2.982
 39240,  3.118
 39300,  3.452
 39360,  2.805
 39420,  3.802
 39480,  3.352
 39540,  4.338
 39600,  4.568
 39660,  4.342
 39720,  4.363
 39780,  5.289
 39840,  5.454
 39900,  6.386
 39960,  6.205
 40020,  6.190
 40080,  5.799
 40140,  6.188
 40200,  5.282
 40260,  4.518
 40320,  3.360
 40380,  4.129
 40440,  4.741
 40500,  3.565
 40560,  2.183
 40620,  2.410
 40680,  3.835
 40740,  6.215
 40800,  5.920
 40860,  6.434
 40920,  5.657
 40980,  4.696
 41040,  2.442
 41100,  4.262
 41160,  3.050
 41220,  3.694
 41280,  3.935
 41340,  2.458
 41400,  4.217
 41460,  4.233
 41520,  6.094
 41580,  7.324
 41640,  6.733
 41700,  7.091
 41760,  9.939
 41820,  9.657
 41880,  9.738
 41940,  4.852
 42000,  5.190
 42060,  7.403
 42120,  7.513
 42180,  7.801
 42240,  9.054
 42300, 11.404
 42360, 11.763
 42420, 12.850
 42480,  8.800
 42540, -9999.000
 42600,  4.680
 42660,  3.758
 42720,  7.362
 42780,  6.308
 42840,  5.384
 42900,  3.923
 42960,  6.740
 43020,  4.338
 43080,  6.421
 43140,  6.216
 43200,  7.071
 43260,  8.098
 43320,  6.663
 43380,  4.001
 43440,  5.126
 43500,  6.234
 43560,  8.964
 43620, 11.406
 43680, 11.917
 43740, 12.338
 43800, 12.155
 43860,  6.607
 43920,  4.894
 43980,  4.368
 44040,  8.583
 44100,  6.295
 44160,  7.579
 44220,  8.163
 44280,  4.219
 44340,  3.535
 44400, -9999.000
 44460,  4.737
 44520,  2.997
 44580,  3.356
 44640,  7.383
 44700, 11.458
 44760, 12.296
 44820, 11.893
 44880, 10.386
 44940, 10.127
 45000, 10.076
 45060,  3.814
 45120,  7.023
 45180,  7.157
 45240,  7.022
 45300,  7.261
 45360,  6.958
 45420,  7.318
 45480,  6.771
 45540,  7.620
 45600,  7.424
 45660,  7.903
 45720,  4.683
 45780,  4.499
 45840,  4.960
 45900,  4.400
 45960,  4.989
 46020,  5.050
 46080,  5.858
 46140,  5.985
 46200,  5.642
 46260, -9999.000
 46320,  4.594
 46380,  3.788
 46440,  5.606
 46500,  4.679
 46560,  4.410
 46620,  4.266
 46680,  3.743
 46740,  3.625
 46800, -9999.000
 46860, -9999.000
 46920, -9999.000
 46980, -9999.000
 47040, -9999.000
 47100, -9999.000
 47160, -9999.000
 47220, -9999.000
 47280, -9999.000
 47340, -9999.000
 47400, -9999.000
 47460, -9999.000
 47520, -9999.000
 47580, -9999.000
 47640, -9999.000
 47700, -9999.000
 47760, -9999.000
 47820, -9999.000
 47880, -9999.000
 47940, -9999.000
 48000, -9999.000
 48060, -9999.000
 48120, -9999.000
 48180, -9999.000
 48240, -9999.000
 48300, -9999.000
 48360, -9999.000
 48420, -9999.000
 48480, -9999.000
 48540, -9999.000
 48600, -9999.000
 48660, -9999.000
 48720, -9999.000
 48780, -9999.000
 48840, -9999.000
 48900, -9999.000
 48960, -9999.000
 49020, -9999.000
 49080, -9999.000
 49140, -9999.000
 49200, -9999.000
 49260, -9999.000
 49320, -9999.000
 49380, -9999.000
 49440, -9999.000
 49500, -9999.000
 49560, -9999.000
 49620, -9999.000
 49680, -9999.000
 49740, -9999.000
 49800, -9999.000
 49860, -9999.000
 49920, -9999.000
 49980, -9999.000
 50040, -9999.000
 50100, -9999.000
 50160, -9999.000
 50220, -9999.000
 50280, -9999.000
 50340, -9999.000
 50400, -9999.000
 50460, -9999.000
 50520, -9999.000
 50580, -9999.000
 50640, -9999.000
 50700, -9999.000
 50760, -9999.000
 50820, -9999.000
 50880, -9999.000
 50940, -9999.000
 51000, -9999.000
 51060, -9999.000
 51120, -9999.000
 51180, -9999.000
 51240, -9999.000
 51300, -9999.000
 51360, -9999.000
 51420, -9999.000
 51480, -9999.000
 51540, -9999.000
 51600, -9999.000
 51660, -9999.000
 51720, -9999.000
 51780, -9999.000
 51840, -9999.000
 51900, -9999.000
 51960, -9999.000
 52020, -9999.000
 52080, -9999.000
 52140, -9999.000
 52200, -9999.000
 52260, -9999.000
 52320, -9999.000
 52380, -9999.000
 52440, -9999.000
 52500, -9999.000
 52560, -9999.000
 52620, -9999.000
 52680, -9999.000
 52740, -9999.000
 52800, -9999.000
 52860, -9999.000
 52920, -9999.000
 52980, -9999.000
 53040, -9999.000
 53100, -9999.000
 53160, -9999.000
 53220, -9999.000
 53280, -9999.000
 53340, -9999.000
 53400, -9999.000
 53460, -9999.000
 53520, -9999.000
 53580, -9999.000
 53640, -9999.000
 53700, -9999.000
 53760, -9999.000
 53820, -9999.000
 53880, -9999.000
 53940, -9999.000
 54000, -9999.000
 54060, -9999.000
 54120, -9999.000
 54180, -9999.000
 54240, -9999.000
 54300, -9999.000
 54360, -9999.000
 54420, -9999.000
 54480, -9999.000
 54540, -9999.000
 54600, -9999.000
 54660, -9999.000
 54720, -9999.000
 54780, -9999.000
 54840, -9999.000
 54900, -9999.000
 54960, -9999.000
 55020, -9999.000
 55080, -9999.000
 55140, -9999.000
 55200, -9999.000
 55260, -9999.000
 55320, -9999.000
 55380, -9999.000
 55440, -9999.000
 55500, -9999.000
 55560, -9999.000
 55620, -9999.000
 55680, -9999.000
 55740, -9999.000
 55800, -9999.000
 55860, -9999.000
 55920, -9999.000
 55980, -9999.000
 56040, -9999.000
 56100, -9999.000
 56160, -9999.000
 56220, -9999.000
 56280, -9999.000
 56340, -9999.000
 56400, -9999.000
 56460, -9999.000
 56520, -9999.000
 56580, -9999.000
 56640, -9999.000
 56700, -9999.000
 56760, -9999.000
 56820, -9999.000
 56880, -9999.000
 56940, -9999.000
 57000, -9999.000
 57060, -9999.000
 57120, -9999.000
 57180, -9999.000
 57240, -9999.000
 57300, -9999.000
 57360, -9999.000
 57420, -9999.000
 57480, -9999.000
 57540, -9999.000
 57600, -9999.000
 57660, -9999.000
 57720, -9999.000
 57780, -9999.000
 57840, -9999.000
 57900, -9999.000
 57960, -9999.000
 58020, -9999.000
 58080, -9999.000
 58140, -9999.000
 58200, -9999.000
 58260, -9999.000
 58320, -9999.000
 58380, -9999.000
 58440, -9999.000
 58500, -9999.000
 58560, -9999.000
 58620, -9999.000
 58680, -9999.000
 58740, -9999.000
 58800, -9999.000
 58860, -9999.000
 58920, -9999.000
 58980, -9999.000
 59040, -9999.000
 59100, -9999.000
 59160, -9999.000
 59220, -9999.000
 59280, -9999.000
 59340, -9999.000
 59400, -9999.000
 59460, -9999.000
 59520, -9999.000
 59580, -9999.000
 59640, -9999.000
 59700, -9999.000
 59760, -9999.000
 59820, -9999.000
 59880, -9999.000
 59940, -9999.000
 60000, -9999.000
 60060, -9999.000
 60120, -9999.000
 60180, -9999.000
 60240, -9999.000
 60300, -9999.000
 60360, -9999.000
 60420, -9999.000
 60480, -9999.000
 60540, -9999.000
 60600, -9999.000
 60660, -9999.000
 60720, -9999.000
 60780, -9999.000
 60840, -9999.000
 60900, -9999.000
 60960, -9999.000
 61020, -9999.000
 61080, -9999.000
 61140, -9999.000
 61200, -9999.000
 61260, -9999.000
 61320, -9999.000
 61380, -9999.000
 61440, -9999.000
 61500, -9999.000
 61560, -9999.000
 61620, -9999.000
 61680, -9999.000
 61740, -9999.000
 61800, -9999.000
 61860, -9999.000
 61920, -9999.000
 61980, -9999.000
 62040, -9999.000
 62100, -9999.000
 62160, -9999.000
 62220, -9999.000
 62280, -9999.000
 62340, -9999.000
 62400, -9999.000
 62460, -9999.000
 62520, -9999.000
 62580, -9999.000
 62640, -9999.000
 62700, -9999.000
 62760, -9999.000
 62820, -9999.000
 62880, -9999.000
 62940, -9999.000
 63000, -9999.000
 63060, -9999.000
 63120, -9999.000
 63180, -9999.000
 63240, -9999.000
 63300, -9999.000
 63360, -9999.000
 63420, -9999.000
 63480, -9999.000
 63540, -9999.000
 63600, -9999.000
 63660, -9999.000
 63720, -9999.000
 63780, -9999.000
 63840, -9999.000
 63900, -9999.000
 63960, -9999.000
 64020, -9999.000
 64080, -9999.000
 64140, -9999.000
 64200, -9999.000
 64260, -9999.000
 64320, -9999.000
 64380, -9999.000
 64440, -9999.000
 64500, -9999.000
 64560, -9999.000
 64620, -9999.000
 64680, -9999.000
 64740, -9999.000
 64800, -9999.000
 64860, -9999.000
 64920, -9999.000
 64980, -9999.000
 65040, -9999.000
 65100, -9999.000
 65160, -9999.000
 65220, -9999.000
 65280, -9999.000
 65340, -9999.000
 65400, -9999.000
 65460, -9999.000
 65520, -9999.000
 65580, -9999.000
 65640, -9999.000
 65700, -9999.000
 65760, -9999.000
 65820, -9999.000
 65880, -9999.000
 65940, -9999.000
 66000, -9999.000
 66060, -9999.000
 66120, -9999.000
 66180, -9999.000
 66240, -9999.000
 66300, -9999.000
 66360, -9999.000
 66420, -9999.000
 66480, -9999.000
 66540, -9999.000
 66600, -9999.000
 66660, -9999.000
 66720, -9999.000
 66780, -9999.000
 66840, -9999.000
 66900, -9999.000
 66960, -9999.000
 67020, -9999.000
 67080, -9999.000
 67140, -9999.000
 67200, -9999.000
 67260, -9999.000
 67320, -9999.000
 67380, -9999.000
 67440, -9999.000
 67500, -9999.000
 67560, -9999.000
 67620, -9999.000
 67680, -9999.000
 67740, -9999.000
 67800, -9999.000
 67860, -9999.000
 67920, -9999.000
 67980, -9999.000
 68040, -9999.000
 68100, -9999.000
 68160, -9999.000
 68220, -9999.000
 68280, -9999.000
 68340, -9999.000
 68400, -9999.000
 68460, -9999.000
 68520, -9999.000
 68580, -9999.000
 68640, -9999.000
 68700, -9999.000
 68760, -9999.000
 68820, -9999.000
 68880, -9999.000
 68940, -9999.000
 69000, -9999.000
 69060, -9999.000
 69120, -9999.000
 69180, -9999.000
 69240, -9999.000
 69300, -9999.000
 69360, -9999.000
 69420, -9999.000
 69480, -9999.000
 69540, -9999.000
 69600, -9999.000
 69660, -9999.000
 69720, -9999.000
 69780, -9999.000
 69840, -9999.000
 69900, -9999.000
 69960, -9999.000
 70020, -9999.000
 70080, -9999.000
 70140, -9999.000
 70200, -9999.000
 70260, -9999.000
 70320, -9999.000
 70380, -9999.000
 70440, -9999.000
 70500, -9999.000
 70560, -9999.000
 70620, -9999.000
 70680, -9999.000
 70740, -9999.000
 70800, -9999.000
 70860, -9999.000
 70920, -9999.000
 70980, -9999.000
 71040, -9999.000
 71100, -9999.000
 71160, -9999.000
 71220, -9999.000
 71280, -9999.000
 71340, -9999.000
 71400, -9999.000
 71460, -9999.000
 71520, -9999.000
 71580, -9999.000
 71640, -9999.000
 71700, -9999.000
 71760, -9999.000
 71820, -9999.000
 71880, -9999.000
 71940, -9999.000
 72000, -9999.000
 72060, -9999.000
 72120, -9999.000
 72180, -9999.000
 72240, -9999.000
 72300, -9999.000
 72360, -9999.000
 72420, -9999.000
 72480, -9999.000
 72540, -9999.000
 72600, -9999.000
 72660, -9999.000
 72720, -9999.000
 72780, -9999.000
 72840, -9999.000
 72900, -9999.000
 72960, -9999.000
 73020, -9999.000
 73080, -9999.000
 73140, -9999.000
 73200, -9999.000
 73260, -9999.000
 73320, -9999.000
 73380, -9999.000
 73440, -9999.000
 73500, -9999.000
 73560, -9999.000
 73620, -9999.000
 73680, -9999.000
 73740, -9999.000
 73800, -9999.000
 73860, -9999.000
 73920, -9999.000
 73980, -9999.000
 74040, -9999.000
 74100, -9999.000
 74160, -9999.000
 74220, -9999.000
 74280, -9999.000
 74340, -9999.000
 74400, -9999.000
 74460, -9999.000
 74520, -9999.000
 74580, -9999.000
 74640, -9999.000
 74700, -9999.000
 74760, -9999.000
 74820, -9999.000
 74880, -9999.000
 74940, -9999.000
 75000, -9999.000
 75060, -9999.000
 75120, -9999.000
 75180, -9999.000
 75240, -9999.000
 75300, -9999.000
 75360, -9999.000
 75420, -9999.000
 75480, -9999.000
 75540, -9999.000
 75600, -9999.000
 75660, -9999.000
 75720, -9999.000
 75780, -9999.000
 75840, -9999.000
 75900, -9999.000
 75960, -9999.000
 76020, -9999.000
 76080, -9999.000
 76140, -9999.000
 76200, -9999.000
 76260, -9999.000
 76320, -9999.000
 76380, -9999.000
 76440, -9999.000
 76500, -9999.000
 76560, -9999.000
 76620, -9999.000
 76680, -9999.000
 76740, -9999.000
 76800, -9999.000
 76860, -9999.000
 76920, -9999.000
 76980, -9999.000
 77040, -9999.000
 77100, -9999.000
 77160, -9999.000
 77220, -9999.000
 77280, -9999.000
 77340, -9999.000
 77400, -9999.000
 77460, -9999.000
 77520, -9999.000
 77580, -9999.000
 77640, -9999.000
 77700, -9999.000
 77760, -9999.000
 77820, -9999.000
 77880, -9999.000
 77940, -9999.000
 78000, -9999.000
 78060, -9999.000
 78120, -9999.000
 78180, -9999.000
 78240, -9999.000
 78300, -9999.000
 78360, -9999.000
 78420, -9999.000
 78480, -9999.000
 78540, -9999.000
 78600, -9999.000
 78660, -9999.000
 78720, -9999.000
 78780, -9999.000
 78840, -9999.000
 78900, -9999.000
 78960, -9999.000
 79020, -9999.000
 79080, -9999.000
 79140, -9999.000
 79200, -9999.000
 79260, -9999.000
 79320, -9999.000
 79380, -9999.000
 79440, -9999.000
 79500, -9999.000
 79560, -9999.000
 79620, -9999.000
 79680, -9999.000
 79740, -9999.000
 79800, -9999.000
 79860, -9999.000
 79920, -9999.000
 79980, -9999.000
 80040, -9999.000
 80100, -9999.000
 80160, -9999.000
 80220, -9999.000
 80280, -9999.000
 80340, -9999.000
 80400, -9999.000
 80460, -9999.000
 80520, -9999.000
 80580, -9999.000
 80640, -9999.000
 80700, -9999.000
 80760, -9999.000
 80820, -9999.000
 80880, -9999.000
 80940, -9999.000
 81000, -9999.000
 81060, -9999.000
 81120, -9999.000
 81180, -9999.000
 81240, -9999.000
 81300, -9999.000
 81360, -9999.000
 81420, -9999.000
 81480, -9999.000
 81540, -9999.000
 81600, -9999.000
 81660, -9999.000
 81720, -9999.000
 81780, -9999.000
 81840, -9999.000
 81900, -9999.000
 81960, -9999.000
 82020, -9999.000
 82080, -9999.000
 82140, -9999.000
 82200, -9999.000
 82260, -9999.000
 82320, -9999.000
 82380, -9999.000
 82440, -9999.000
 82500, -9999.000
 82560, -9999.000
 82620, -9999.000
 82680, -9999.000
 82740, -9999.000
 82800, -9999.000
 82860, -9999.000
 82920, -9999.000
 82980, -9999.000
 83040, -9999.000
 83100, -9999.000
 83160, -9999.000
 83220, -9999.000
 83280, -9999.000
 83340, -9999.000
 83400, -9999.000
 83460, -9999.000
 83520, -9999.000
 83580, -9999.000
 83640, -9999.000
 83700, -9999.000
 83760, -9999.000
 83820, -9999.000
 83880, -9999.000
 83940, -9999.000
 84000, -9999.000
 84060, -9999.000
 84120, -9999.000
 84180, -9999.000
 84240, -9999.000
 84300, -9999.000
 84360, -9999.000
 84420, -9999.000
 84480, -9999.000
 84540, -9999.000
 84600, -9999.000
 84660, -9999.000
 84720, -9999.000
 84780, -9999.000
 84840, -9999.000
 84900, -9999.000
 84960, -9999.000
 85020, -9999.000
 85080, -9999.000
 85140, -9999.000
 85200, -9999.000
 85260, -9999.000
 85320, -9999.000
 85380, -9999.000
 85440, -9999.000
 85500, -9999.000
 85560, -9999.000
 85620, -9999.000
 85680, -9999.000
 85740, -9999.000
 85800, -9999.000
 85860, -9999.000
 85920, -9999.000
 85980, -9999.000
 86040, -9999.000
 86100, -9999.000
 86160, -9999.000
 86220, -9999.000
 86280, -9999.000
 86340, -9999.000
