33, 1001
Michael A Robinson, Chris Jernigan, Subi Thakali
NOAA ESRL Chemical Sciences Laboratory and CIRES, U. of Colorado
NOAA Iodide CIMS Instrument
USOS
1, 1
2024, 07, 30, 2024, 07, 31
1
starttime_UTC, seconds_past_midnight, seconds_of_day_since_00:00:00_UTC
1
1
-9999
HCOOH_NOAACIMS, pptv, Gas_HCOOH_InSitu_S_AVMR, 
0
18
PI_CONTACT_INFO: 325 Broadway, R/CSD 7, Boulder, Colorado 80305; michael.a.robinson@noaa.gov; chris.jernigan@noaa.gov;
PLATFORM: NOAA CSL Mobile Lab
LOCATION: SLC, Utah
ASSOCIATED_DATA: 1Hz data also available on request.
INSTRUMENT_INFO: NOAA I- ToF CIMS
DATA_INFO: All data in parts per trillion by volume (pptv). 1 Hz data is available upon request.
UNCERTAINTY: TBD
ULOD_FLAG: -7777
ULOD_VALUE: N/A
LLOD_FLAG: -8888
LLOD_VALUE: N/A
DM_CONTACT_INFO: Nathan Howard; nathan.h.howard@noaa.gov
PROJECT_INFO: USOS, summer 2024. https://csl.noaa.gov/groups/csl7/measurements/2024usos/
STIPULATIONS_ON_USE: Users are strongly encouraged to contact the PI for proper data usage.
OTHER_COMMENTS: 
REVISION: RA
RA: Preliminary Data; For in-field use only
starttime_UTC, HCOOH_NOAACIMS
     0, 233.981
    60, 240.000
   120, 250.779
   180, 216.775
   240, 246.694
   300, 228.398
   360, 283.200
   420, 273.990
   480, 268.956
   540, 252.495
   600, 243.232
   660, 242.818
   720, -9999.000
   780, 246.435
   840, 233.095
   900, 274.282
   960, 251.569
  1020, 228.515
  1080, 237.931
  1140, 224.751
  1200, 234.871
  1260, 210.822
  1320, 231.302
  1380, 231.476
  1440, 245.491
  1500, 235.850
  1560, 249.507
  1620, 251.910
  1680, 226.444
  1740, 274.041
  1800, 372.777
  1860, 391.486
  1920, 388.321
  1980, 395.226
  2040, 422.662
  2100, 424.774
  2160, 428.862
  2220, 429.564
  2280, 495.134
  2340, 551.039
  2400, 508.663
  2460, 458.810
  2520, 476.110
  2580, -9999.000
  2640, 442.635
  2700, 480.317
  2760, 501.082
  2820, 533.626
  2880, 523.163
  2940, 536.429
  3000, 516.980
  3060, 514.631
  3120, 554.149
  3180, 533.479
  3240, 562.984
  3300, 554.825
  3360, 565.336
  3420, 563.112
  3480, 530.792
  3540, 578.819
  3600, 542.135
  3660, 583.318
  3720, 546.170
  3780, 546.496
  3840, 586.696
  3900, 576.025
  3960, 601.790
  4020, 569.074
  4080, 582.065
  4140, 598.581
  4200, 633.303
  4260, 618.711
  4320, 658.315
  4380, 666.577
  4440, -9999.000
  4500, 703.591
  4560, 665.221
  4620, 725.753
  4680, 706.433
  4740, 745.249
  4800, 796.400
  4860, 757.531
  4920, 745.139
  4980, 842.888
  5040, 765.325
  5100, 751.351
  5160, 736.428
  5220, 761.764
  5280, 724.779
  5340, 677.664
  5400, 653.905
  5460, 692.215
  5520, 708.015
  5580, 789.540
  5640, 740.019
  5700, 713.329
  5760, 689.332
  5820, 690.818
  5880, 722.313
  5940, 656.517
  6000, 648.664
  6060, 730.175
  6120, 705.306
  6180, 751.616
  6240, 762.315
  6300, 705.384
  6360, 679.971
  6420, 699.462
  6480, 709.144
  6540, 689.906
  6600, 705.503
  6660, 697.851
  6720, 732.176
  6780, 726.269
  6840, 685.219
  6900, 674.109
  6960, 768.002
  7020, 736.130
  7080, 796.043
  7140, 797.757
  7200, 754.913
  7260, 790.852
  7320, 790.794
  7380, 770.371
  7440, 832.955
  7500, 774.132
  7560, 853.359
  7620, 812.106
  7680, 837.828
  7740, 755.628
  7800, 889.209
  7860, 771.073
  7920, 853.527
  7980, 801.308
  8040, 943.407
  8100, -9999.000
  8160, 689.681
  8220, 828.138
  8280, 916.617
  8340, 886.441
  8400, 938.700
  8460, 887.712
  8520, 916.725
  8580, 899.584
  8640, 929.422
  8700, 926.895
  8760, 878.182
  8820, 1004.178
  8880, 911.608
  8940, 721.531
  9000, 643.066
  9060, 622.329
  9120, 598.393
  9180, 588.136
  9240, 616.437
  9300, -9999.000
  9360, 640.235
  9420, 593.348
  9480, 670.682
  9540, 680.042
  9600, 662.120
  9660, 625.231
  9720, 663.613
  9780, 716.595
  9840, 769.331
  9900, 746.377
  9960, 819.837
 10020, 774.026
 10080, 810.707
 10140, 802.203
 10200, 862.549
 10260, 868.846
 10320, 909.742
 10380, 878.936
 10440, 816.196
 10500, 798.623
 10560, 1043.912
 10620, 1069.018
 10680, 1099.790
 10740, 1103.370
 10800, 1031.412
 10860, 1034.090
 10920, 1062.301
 10980, 1045.217
 11040, 1055.526
 11100, 1081.491
 11160, 1077.976
 11220, 1049.663
 11280, 1031.005
 11340, 1056.264
 11400, 1058.248
 11460, 1036.985
 11520, 1028.675
 11580, 1023.856
 11640, 1026.317
 11700, 1016.516
 11760, 999.589
 11820, 1029.159
 11880, 1070.206
 11940, 1000.584
 12000, 1016.100
 12060, 1011.020
 12120, 1038.014
 12180, 1033.324
 12240, 1015.767
 12300, 1039.018
 12360, 1072.196
 12420, 1026.960
 12480, 1056.571
 12540, 1042.578
 12600, 1054.554
 12660, 1034.282
 12720, 1042.831
 12780, 1034.110
 12840, 1038.979
 12900, 1021.255
 12960, 1016.608
 13020, 1108.903
 13080, 1031.922
 13140, 980.358
 13200, 1000.068
 13260, 995.914
 13320, 957.099
 13380, 907.673
 13440, 973.800
 13500, 912.714
 13560, 883.115
 13620, 940.260
 13680, 911.618
 13740, 873.400
 13800, 908.569
 13860, 898.191
 13920, 894.147
 13980, 877.326
 14040, 920.180
 14100, 883.811
 14160, 874.009
 14220, 888.580
 14280, 884.083
 14340, 921.368
 14400, 911.102
 14460, 906.421
 14520, 893.994
 14580, 873.510
 14640, 905.385
 14700, 923.381
 14760, 883.457
 14820, 854.108
 14880, 851.230
 14940, 868.743
 15000, 865.219
 15060, 881.528
 15120, 883.884
 15180, 897.974
 15240, 887.331
 15300, 861.686
 15360, 866.857
 15420, 914.482
 15480, 883.785
 15540, 896.947
 15600, 901.662
 15660, 900.229
 15720, 895.208
 15780, 936.082
 15840, 883.051
 15900, 902.181
 15960, 872.615
 16020, 908.753
 16080, 863.492
 16140, 907.963
 16200, 890.745
 16260, 873.121
 16320, 894.308
 16380, 874.541
 16440, 907.525
 16500, 870.446
 16560, 885.682
 16620, 858.134
 16680, -9999.000
 16740, 882.339
 16800, 894.415
 16860, 887.770
 16920, 894.906
 16980, 860.990
 17040, 875.777
 17100, 869.441
 17160, 848.234
 17220, 886.655
 17280, 869.748
 17340, 877.763
 17400, 875.448
 17460, 850.418
 17520, 848.104
 17580, 824.684
 17640, 817.000
 17700, 833.005
 17760, 778.455
 17820, 834.287
 17880, 851.444
 17940, 815.351
 18000, 803.362
 18060, 813.485
 18120, 745.290
 18180, 825.717
 18240, 829.335
 18300, 835.827
 18360, 805.758
 18420, 793.061
 18480, 790.858
 18540, -9999.000
 18600, 711.887
 18660, 803.408
 18720, 795.120
 18780, 772.637
 18840, 780.445
 18900, 797.787
 18960, 749.845
 19020, 797.003
 19080, 792.504
 19140, 775.830
 19200, 789.967
 19260, 765.926
 19320, 764.092
 19380, 769.995
 19440, 770.816
 19500, 798.103
 19560, 798.891
 19620, 776.186
 19680, 768.139
 19740, 760.021
 19800, 732.653
 19860, 777.571
 19920, 791.610
 19980, 747.004
 20040, 778.487
 20100, 741.976
 20160, 705.427
 20220, 785.195
 20280, 789.001
 20340, 759.824
 20400, -9999.000
 20460, 774.793
 20520, 753.076
 20580, 787.799
 20640, 779.895
 20700, 757.900
 20760, 808.408
 20820, 803.250
 20880, 773.572
 20940, 869.168
 21000, 893.706
 21060, 871.962
 21120, 948.118
 21180, 890.108
 21240, 857.516
 21300, 878.237
 21360, 853.483
 21420, 840.380
 21480, 843.001
 21540, 823.820
 21600, 842.827
 21660, 860.086
 21720, 854.553
 21780, 863.455
 21840, 874.060
 21900, 808.983
 21960, 767.682
 22020, 806.951
 22080, 797.110
 22140, 800.183
 22200, 817.147
 22260, 718.725
 22320, 737.410
 22380, 796.930
 22440, 804.044
 22500, 752.525
 22560, 764.639
 22620, 801.327
 22680, 786.908
 22740, 784.657
 22800, 808.064
 22860, 774.299
 22920, 776.080
 22980, 818.768
 23040, 819.481
 23100, 808.280
 23160, 776.974
 23220, 782.329
 23280, 814.932
 23340, 886.513
 23400, 897.813
 23460, 850.715
 23520, 824.735
 23580, 912.183
 23640, 969.497
 23700, 855.251
 23760, 820.168
 23820, 904.729
 23880, 925.345
 23940, 942.493
 24000, 960.542
 24060, -9999.000
 24120, 981.755
 24180, 1057.705
 24240, 1034.168
 24300, 977.763
 24360, 976.244
 24420, 1040.038
 24480, 1056.709
 24540, 1009.766
 24600, 1026.199
 24660, 1137.879
 24720, 1130.586
 24780, 1152.318
 24840, 1050.412
 24900, 922.513
 24960, 955.753
 25020, 1049.380
 25080, 1092.823
 25140, 1042.357
 25200, 1046.725
 25260, 1141.250
 25320, 1150.959
 25380, 1095.002
 25440, 1086.965
 25500, 1221.258
 25560, 1159.535
 25620, 1116.129
 25680, 1154.461
 25740, 1167.686
 25800, 1235.976
 25860, 1222.727
 25920, 1179.708
 25980, 1211.710
 26040, 1235.966
 26100, 1263.113
 26160, 1272.250
 26220, 1206.691
 26280, 1177.551
 26340, 1248.563
 26400, 1263.442
 26460, 1155.391
 26520, 976.755
 26580, 1144.261
 26640, 1231.286
 26700, 1090.609
 26760, 1079.286
 26820, 1053.009
 26880, 1084.037
 26940, 955.797
 27000, 1006.425
 27060, 1054.026
 27120, 1040.928
 27180, 1008.700
 27240, 974.206
 27300, 940.814
 27360, 1003.207
 27420, 836.555
 27480, 846.207
 27540, 819.710
 27600, 734.177
 27660, 789.938
 27720, 821.960
 27780, -9999.000
 27840, 801.398
 27900, 800.637
 27960, 791.636
 28020, 788.365
 28080, 766.102
 28140, 765.762
 28200, 826.398
 28260, 801.661
 28320, 792.304
 28380, 806.398
 28440, 819.529
 28500, 813.292
 28560, 792.211
 28620, 840.111
 28680, 816.380
 28740, 765.608
 28800, 726.544
 28860, 799.916
 28920, 848.945
 28980, 856.908
 29040, 845.240
 29100, 935.205
 29160, 871.833
 29220, 849.546
 29280, 874.286
 29340, 844.257
 29400, 859.453
 29460, 964.562
 29520, 892.245
 29580, 905.032
 29640, 846.331
 29700, 894.791
 29760, 866.839
 29820, 872.547
 29880, 830.601
 29940, 920.644
 30000, 939.805
 30060, 874.478
 30120, 767.326
 30180, 832.711
 30240, 910.366
 30300, 887.930
 30360, 694.384
 30420, 772.918
 30480, 805.490
 30540, 773.391
 30600, 692.502
 30660, 748.268
 30720, 745.215
 30780, 719.374
 30840, 723.250
 30900, 761.284
 30960, 753.474
 31020, 663.654
 31080, 670.823
 31140, 762.791
 31200, 809.175
 31260, 789.219
 31320, 758.900
 31380, 911.284
 31440, 812.386
 31500, 866.567
 31560, 885.324
 31620, 884.260
 31680, 876.406
 31740, 920.957
 31800, 944.239
 31860, 927.844
 31920, 915.287
 31980, 836.282
 32040, 946.967
 32100, 915.387
 32160, 919.574
 32220, 938.512
 32280, 986.218
 32340, 946.200
 32400, 947.529
 32460, 1020.588
 32520, 1049.243
 32580, 1005.380
 32640, 887.804
 32700, 871.588
 32760, 937.987
 32820, 942.486
 32880, 822.123
 32940, 830.658
 33000, 808.154
 33060, 772.530
 33120, 871.975
 33180, 908.170
 33240, 852.638
 33300, 843.656
 33360, 791.089
 33420, 732.931
 33480, 692.605
 33540, 634.067
 33600, 721.901
 33660, 793.960
 33720, 753.946
 33780, 760.087
 33840, 820.268
 33900, 782.934
 33960, 683.643
 34020, 694.789
 34080, 687.559
 34140, 698.206
 34200, 730.776
 34260, 595.815
 34320, 579.547
 34380, 674.493
 34440, 630.038
 34500, 616.153
 34560, 633.690
 34620, 697.363
 34680, 686.144
 34740, 672.051
 34800, 672.944
 34860, 735.691
 34920, 754.282
 34980, 758.851
 35040, 731.428
 35100, 740.789
 35160, -9999.000
 35220, 777.419
 35280, 792.214
 35340, 766.238
 35400, 762.264
 35460, 723.687
 35520, 717.048
 35580, 847.396
 35640, 852.214
 35700, 801.746
 35760, 811.002
 35820, 638.414
 35880, 762.866
 35940, 794.963
 36000, 839.706
 36060, 861.269
 36120, 809.097
 36180, 777.141
 36240, 763.325
 36300, 687.755
 36360, 706.164
 36420, 802.709
 36480, 772.439
 36540, 755.379
 36600, 805.259
 36660, 850.609
 36720, 822.956
 36780, 740.253
 36840, 726.006
 36900, 807.510
 36960, 858.653
 37020, -9999.000
 37080, 843.702
 37140, 855.395
 37200, 896.651
 37260, 817.785
 37320, 798.628
 37380, 798.199
 37440, 760.771
 37500, 771.289
 37560, 776.079
 37620, 824.233
 37680, 849.607
 37740, 898.394
 37800, 886.650
 37860, 925.567
 37920, 889.570
 37980, 893.435
 38040, 943.591
 38100, 903.941
 38160, 962.043
 38220, 901.416
 38280, 877.744
 38340, 960.258
 38400, 1009.702
 38460, 916.662
 38520, 837.839
 38580, 949.420
 38640, 792.691
 38700, 791.728
 38760, 787.973
 38820, 870.701
 38880, -9999.000
 38940, 766.257
 39000, 713.449
 39060, 713.276
 39120, 747.577
 39180, 723.314
 39240, 778.336
 39300, 793.542
 39360, 826.323
 39420, 765.648
 39480, 827.805
 39540, 794.953
 39600, 784.478
 39660, 803.398
 39720, 805.876
 39780, 802.543
 39840, 854.898
 39900, 789.463
 39960, 803.116
 40020, 787.570
 40080, 777.720
 40140, 821.675
 40200, 844.550
 40260, 852.237
 40320, 881.397
 40380, 868.130
 40440, 799.320
 40500, 762.532
 40560, 882.372
 40620, 886.185
 40680, 854.307
 40740, 615.362
 40800, 598.800
 40860, 666.427
 40920, 775.487
 40980, 811.747
 41040, 894.233
 41100, 953.043
 41160, 937.782
 41220, 885.870
 41280, 935.686
 41340, 899.503
 41400, 817.972
 41460, 900.334
 41520, 901.921
 41580, 774.205
 41640, 727.752
 41700, 755.186
 41760, 784.631
 41820, 804.023
 41880, 836.169
 41940, 855.382
 42000, 860.452
 42060, 781.331
 42120, 835.445
 42180, 968.116
 42240, 870.982
 42300, 792.187
 42360, 797.061
 42420, 845.895
 42480, 880.622
 42540, -9999.000
 42600, 959.588
 42660, 843.762
 42720, 808.147
 42780, 813.901
 42840, 866.524
 42900, 885.117
 42960, 772.552
 43020, 826.526
 43080, 911.242
 43140, 951.193
 43200, 865.695
 43260, 874.655
 43320, 852.422
 43380, 839.210
 43440, 800.426
 43500, 849.103
 43560, 832.887
 43620, 833.006
 43680, 838.284
 43740, 945.852
 43800, 887.632
 43860, 901.218
 43920, 954.383
 43980, 897.037
 44040, 843.126
 44100, 870.701
 44160, 927.924
 44220, 936.748
 44280, 933.467
 44340, 895.381
 44400, -9999.000
 44460, 915.214
 44520, 982.294
 44580, 992.356
 44640, 919.506
 44700, 965.103
 44760, 823.530
 44820, 888.808
 44880, 846.399
 44940, 854.732
 45000, 879.721
 45060, 977.884
 45120, 1011.430
 45180, 939.586
 45240, 926.600
 45300, 819.081
 45360, 746.978
 45420, 733.368
 45480, 700.286
 45540, 697.321
 45600, 740.207
 45660, 741.447
 45720, 747.475
 45780, 727.260
 45840, 743.664
 45900, 742.736
 45960, 759.546
 46020, 868.300
 46080, 848.671
 46140, 799.081
 46200, 696.194
 46260, -9999.000
 46320, 817.549
 46380, 694.455
 46440, 688.688
 46500, 740.445
 46560, 690.018
 46620, 675.464
 46680, 648.497
 46740, 655.891
 46800, 677.071
 46860, 612.086
 46920, 539.215
 46980, 560.850
 47040, 575.022
 47100, 589.418
 47160, 516.642
 47220, 448.496
 47280, 466.558
 47340, 470.624
 47400, 482.669
 47460, 489.640
 47520, 528.979
 47580, 488.784
 47640, 508.538
 47700, 586.774
 47760, 591.372
 47820, 590.335
 47880, 554.638
 47940, 589.992
 48000, 588.931
 48060, 560.521
 48120, 561.714
 48180, 573.270
 48240, 591.453
 48300, 539.922
 48360, 520.295
 48420, 548.372
 48480, 587.871
 48540, 561.346
 48600, 492.274
 48660, 520.233
 48720, 535.419
 48780, 492.863
 48840, 503.195
 48900, 501.973
 48960, 479.534
 49020, 498.348
 49080, 517.950
 49140, 500.123
 49200, 480.227
 49260, 536.481
 49320, 540.662
 49380, 568.447
 49440, 578.082
 49500, 583.214
 49560, 645.747
 49620, 619.536
 49680, 622.117
 49740, 604.924
 49800, 579.885
 49860, 591.604
 49920, 623.059
 49980, 634.894
 50040, 615.148
 50100, 645.545
 50160, 655.915
 50220, 629.613
 50280, 622.825
 50340, 567.923
 50400, 545.594
 50460, 618.582
 50520, 675.287
 50580, 628.479
 50640, 575.877
 50700, 558.314
 50760, 582.543
 50820, 629.111
 50880, 690.459
 50940, 637.678
 51000, 677.732
 51060, 699.298
 51120, 665.402
 51180, 695.926
 51240, 674.625
 51300, 682.145
 51360, 657.893
 51420, 615.963
 51480, 642.379
 51540, 690.018
 51600, 672.420
 51660, 641.882
 51720, 667.331
 51780, 729.736
 51840, 669.952
 51900, 754.387
 51960, 766.970
 52020, 826.205
 52080, 827.040
 52140, 817.459
 52200, 832.020
 52260, 766.723
 52320, 691.072
 52380, 696.362
 52440, 679.796
 52500, 680.672
 52560, 697.562
 52620, 682.327
 52680, 694.548
 52740, 676.355
 52800, 686.718
 52860, 762.842
 52920, 816.200
 52980, 985.862
 53040, 1031.798
 53100, 897.297
 53160, 796.261
 53220, 794.713
 53280, 788.287
 53340, 808.433
 53400, 822.888
 53460, 786.012
 53520, 740.943
 53580, 861.273
 53640, -9999.000
 53700, 923.109
 53760, 864.644
 53820, 850.941
 53880, 836.166
 53940, 829.479
 54000, 968.955
 54060, 958.476
 54120, 902.751
 54180, 927.646
 54240, 924.182
 54300, 992.202
 54360, 821.883
 54420, 825.233
 54480, 867.431
 54540, 930.310
 54600, 945.279
 54660, 963.600
 54720, 869.858
 54780, 946.084
 54840, 1056.871
 54900, 955.837
 54960, 945.071
 55020, 926.075
 55080, 982.544
 55140, 931.673
 55200, 952.921
 55260, 993.222
 55320, 997.709
 55380, 997.103
 55440, 925.620
 55500, -9999.000
 55560, 891.498
 55620, 949.896
 55680, 896.212
 55740, 1003.698
 55800, 1019.652
 55860, 851.817
 55920, 823.846
 55980, 783.014
 56040, 782.860
 56100, 802.275
 56160, 890.099
 56220, 897.699
 56280, 873.375
 56340, 772.253
 56400, 790.554
 56460, 767.715
 56520, 783.971
 56580, 732.238
 56640, 757.674
 56700, 732.088
 56760, 750.150
 56820, 695.509
 56880, 694.778
 56940, 648.521
 57000, 634.378
 57060, 613.035
 57120, 644.385
 57180, 611.126
 57240, 610.091
 57300, 558.621
 57360, -9999.000
 57420, 586.770
 57480, 639.939
 57540, 699.980
 57600, 673.876
 57660, 638.154
 57720, 619.978
 57780, 605.625
 57840, 605.076
 57900, 624.526
 57960, 607.012
 58020, 616.290
 58080, 585.686
 58140, 603.220
 58200, 705.200
 58260, 633.850
 58320, 716.961
 58380, 728.223
 58440, 786.912
 58500, 727.113
 58560, 649.225
 58620, 744.350
 58680, 652.557
 58740, 652.821
 58800, 631.082
 58860, 618.704
 58920, 583.750
 58980, 580.510
 59040, 621.258
 59100, 634.209
 59160, 646.616
 59220, 675.666
 59280, 790.214
 59340, 676.652
 59400, 668.092
 59460, 674.529
 59520, 669.342
 59580, 623.142
 59640, 626.108
 59700, 633.067
 59760, 661.187
 59820, 647.460
 59880, 663.545
 59940, 666.166
 60000, 713.527
 60060, 789.663
 60120, 902.214
 60180, 868.223
 60240, 768.215
 60300, 721.149
 60360, 783.573
 60420, 869.145
 60480, 839.351
 60540, 807.287
 60600, 736.501
 60660, 732.341
 60720, 724.998
 60780, 772.618
 60840, 843.124
 60900, 872.814
 60960, 847.731
 61020, -9999.000
 61080, 709.935
 61140, 781.272
 61200, 887.879
 61260, 851.466
 61320, 924.880
 61380, 867.521
 61440, 927.604
 61500, 996.306
 61560, 945.497
 61620, 804.115
 61680, 860.602
 61740, 939.182
 61800, 827.774
 61860, 915.364
 61920, 913.103
 61980, 893.360
 62040, 1011.326
 62100, 881.099
 62160, 874.352
 62220, 764.153
 62280, 798.040
 62340, 867.105
 62400, 907.404
 62460, 910.743
 62520, 907.380
 62580, 832.073
 62640, 914.406
 62700, 863.039
 62760, 838.118
 62820, 825.020
 62880, -9999.000
 62940, 753.081
 63000, 754.909
 63060, 751.873
 63120, 744.241
 63180, 803.330
 63240, 761.243
 63300, 830.061
 63360, 844.457
 63420, 863.945
 63480, 827.299
 63540, 824.326
 63600, 766.789
 63660, 871.162
 63720, 893.178
 63780, 775.049
 63840, 781.752
 63900, 781.560
 63960, 774.585
 64020, 808.981
 64080, 786.199
 64140, 760.868
 64200, 774.351
 64260, 736.067
 64320, 791.478
 64380, 804.403
 64440, 807.200
 64500, 823.787
 64560, 779.476
 64620, 799.167
 64680, 822.117
 64740, -9999.000
 64800, 923.009
 64860, 909.756
 64920, 981.240
 64980, 1016.609
 65040, 1076.518
 65100, 1081.373
 65160, 984.367
 65220, 915.953
 65280, 957.437
 65340, 1009.941
 65400, 1001.718
 65460, 902.367
 65520, 931.806
 65580, 923.058
 65640, 1063.277
 65700, 1100.138
 65760, 1079.788
 65820, 1023.554
 65880, 1053.369
 65940, 1043.818
 66000, 1149.932
 66060, 1125.893
 66120, 1090.601
 66180, 1071.641
 66240, 1057.753
 66300, 1102.568
 66360, 1216.016
 66420, 1214.612
 66480, 1179.853
 66540, 1127.938
 66600, 1209.095
 66660, 1120.731
 66720, 1134.904
 66780, 1203.846
 66840, 1110.770
 66900, 1208.395
 66960, 2367.533
 67020, 1921.209
 67080, 1453.243
 67140, 1318.360
 67200, 1579.050
 67260, 1207.055
 67320, -9999.000
 67380, -9999.000
 67440, -9999.000
 67500, -9999.000
 67560, -9999.000
 67620, -9999.000
 67680, -9999.000
 67740, -9999.000
 67800, -9999.000
 67860, -9999.000
 67920, -9999.000
 67980, -9999.000
 68040, -9999.000
 68100, -9999.000
 68160, -9999.000
 68220, -9999.000
 68280, -9999.000
 68340, -9999.000
 68400, -9999.000
 68460, -9999.000
 68520, -9999.000
 68580, -9999.000
 68640, -9999.000
 68700, -9999.000
 68760, -9999.000
 68820, -9999.000
 68880, -9999.000
 68940, -9999.000
 69000, -9999.000
 69060, -9999.000
 69120, -9999.000
 69180, -9999.000
 69240, -9999.000
 69300, -9999.000
 69360, -9999.000
 69420, -9999.000
 69480, -9999.000
 69540, -9999.000
 69600, -9999.000
 69660, -9999.000
 69720, -9999.000
 69780, -9999.000
 69840, -9999.000
 69900, -9999.000
 69960, -9999.000
 70020, -9999.000
 70080, -9999.000
 70140, -9999.000
 70200, -9999.000
 70260, -9999.000
 70320, -9999.000
 70380, -9999.000
 70440, -9999.000
 70500, -9999.000
 70560, -9999.000
 70620, -9999.000
 70680, -9999.000
 70740, -9999.000
 70800, -9999.000
 70860, -9999.000
 70920, -9999.000
 70980, -9999.000
 71040, -9999.000
 71100, -9999.000
 71160, -9999.000
 71220, -9999.000
 71280, -9999.000
 71340, -9999.000
 71400, -9999.000
 71460, -9999.000
 71520, -9999.000
 71580, -9999.000
 71640, -9999.000
 71700, -9999.000
 71760, -9999.000
 71820, -9999.000
 71880, -9999.000
 71940, -9999.000
 72000, -9999.000
 72060, -9999.000
 72120, -9999.000
 72180, -9999.000
 72240, -9999.000
 72300, -9999.000
 72360, -9999.000
 72420, -9999.000
 72480, -9999.000
 72540, -9999.000
 72600, -9999.000
 72660, -9999.000
 72720, -9999.000
 72780, -9999.000
 72840, -9999.000
 72900, -9999.000
 72960, -9999.000
 73020, -9999.000
 73080, -9999.000
 73140, -9999.000
 73200, -9999.000
 73260, -9999.000
 73320, -9999.000
 73380, -9999.000
 73440, -9999.000
 73500, -9999.000
 73560, -9999.000
 73620, -9999.000
 73680, -9999.000
 73740, -9999.000
 73800, -9999.000
 73860, -9999.000
 73920, -9999.000
 73980, -9999.000
 74040, -9999.000
 74100, -9999.000
 74160, -9999.000
 74220, -9999.000
 74280, -9999.000
 74340, -9999.000
 74400, -9999.000
 74460, -9999.000
 74520, -9999.000
 74580, -9999.000
 74640, -9999.000
 74700, -9999.000
 74760, -9999.000
 74820, -9999.000
 74880, -9999.000
 74940, -9999.000
 75000, -9999.000
 75060, -9999.000
 75120, -9999.000
 75180, -9999.000
 75240, -9999.000
 75300, -9999.000
 75360, -9999.000
 75420, -9999.000
 75480, -9999.000
 75540, -9999.000
 75600, -9999.000
 75660, -9999.000
 75720, -9999.000
 75780, -9999.000
 75840, -9999.000
 75900, -9999.000
 75960, -9999.000
 76020, -9999.000
 76080, -9999.000
 76140, -9999.000
 76200, -9999.000
 76260, -9999.000
 76320, -9999.000
 76380, -9999.000
 76440, -9999.000
 76500, -9999.000
 76560, -9999.000
 76620, -9999.000
 76680, -9999.000
 76740, -9999.000
 76800, -9999.000
 76860, -9999.000
 76920, -9999.000
 76980, -9999.000
 77040, -9999.000
 77100, -9999.000
 77160, -9999.000
 77220, -9999.000
 77280, -9999.000
 77340, -9999.000
 77400, -9999.000
 77460, -9999.000
 77520, -9999.000
 77580, -9999.000
 77640, -9999.000
 77700, -9999.000
 77760, -9999.000
 77820, -9999.000
 77880, -9999.000
 77940, -9999.000
 78000, -9999.000
 78060, -9999.000
 78120, -9999.000
 78180, -9999.000
 78240, -9999.000
 78300, -9999.000
 78360, -9999.000
 78420, -9999.000
 78480, -9999.000
 78540, -9999.000
 78600, -9999.000
 78660, -9999.000
 78720, -9999.000
 78780, -9999.000
 78840, -9999.000
 78900, -9999.000
 78960, -9999.000
 79020, -9999.000
 79080, -9999.000
 79140, -9999.000
 79200, -9999.000
 79260, -9999.000
 79320, -9999.000
 79380, -9999.000
 79440, -9999.000
 79500, -9999.000
 79560, -9999.000
 79620, -9999.000
 79680, -9999.000
 79740, -9999.000
 79800, -9999.000
 79860, -9999.000
 79920, -9999.000
 79980, -9999.000
 80040, -9999.000
 80100, -9999.000
 80160, -9999.000
 80220, -9999.000
 80280, -9999.000
 80340, -9999.000
 80400, -9999.000
 80460, -9999.000
 80520, -9999.000
 80580, -9999.000
 80640, -9999.000
 80700, -9999.000
 80760, -9999.000
 80820, -9999.000
 80880, -9999.000
 80940, -9999.000
 81000, -9999.000
 81060, -9999.000
 81120, -9999.000
 81180, -9999.000
 81240, -9999.000
 81300, -9999.000
 81360, -9999.000
 81420, -9999.000
 81480, -9999.000
 81540, -9999.000
 81600, -9999.000
 81660, -9999.000
 81720, -9999.000
 81780, -9999.000
 81840, -9999.000
 81900, -9999.000
 81960, -9999.000
 82020, -9999.000
 82080, -9999.000
 82140, -9999.000
 82200, -9999.000
 82260, -9999.000
 82320, -9999.000
 82380, -9999.000
 82440, -9999.000
 82500, -9999.000
 82560, -9999.000
 82620, -9999.000
 82680, -9999.000
 82740, -9999.000
 82800, -9999.000
 82860, -9999.000
 82920, -9999.000
 82980, -9999.000
 83040, -9999.000
 83100, -9999.000
 83160, -9999.000
 83220, -9999.000
 83280, -9999.000
 83340, -9999.000
 83400, -9999.000
 83460, -9999.000
 83520, -9999.000
 83580, -9999.000
 83640, -9999.000
 83700, -9999.000
 83760, -9999.000
 83820, -9999.000
 83880, -9999.000
 83940, -9999.000
 84000, -9999.000
 84060, -9999.000
 84120, -9999.000
 84180, -9999.000
 84240, -9999.000
 84300, -9999.000
 84360, -9999.000
 84420, -9999.000
 84480, -9999.000
 84540, -9999.000
 84600, -9999.000
 84660, -9999.000
 84720, -9999.000
 84780, -9999.000
 84840, -9999.000
 84900, -9999.000
 84960, -9999.000
 85020, -9999.000
 85080, -9999.000
 85140, -9999.000
 85200, -9999.000
 85260, -9999.000
 85320, -9999.000
 85380, -9999.000
 85440, -9999.000
 85500, -9999.000
 85560, -9999.000
 85620, -9999.000
 85680, -9999.000
 85740, -9999.000
 85800, -9999.000
 85860, -9999.000
 85920, -9999.000
 85980, -9999.000
 86040, -9999.000
 86100, -9999.000
 86160, -9999.000
 86220, -9999.000
 86280, -9999.000
 86340, -9999.000
