33, 1001
Michael A Robinson, Chris Jernigan, Subi Thakali
NOAA ESRL Chemical Sciences Laboratory and CIRES, U. of Colorado
NOAA Iodide CIMS Instrument
USOS
1, 1
2024, 07, 30, 2024, 07, 31
1
starttime_UTC, seconds_past_midnight, seconds_of_day_since_00:00:00_UTC
1
1
-9999
HNO3_NOAACIMS, pptv, Gas_HNO3_InSitu_S_AVMR, 
0
18
PI_CONTACT_INFO: 325 Broadway, R/CSD 7, Boulder, Colorado 80305; michael.a.robinson@noaa.gov; chris.jernigan@noaa.gov;
PLATFORM: NOAA CSL Mobile Lab
LOCATION: SLC, Utah
ASSOCIATED_DATA: 1Hz data also available on request.
INSTRUMENT_INFO: NOAA I- ToF CIMS
DATA_INFO: All data in parts per trillion by volume (pptv). 1 Hz data is available upon request.
UNCERTAINTY: TBD
ULOD_FLAG: -7777
ULOD_VALUE: N/A
LLOD_FLAG: -8888
LLOD_VALUE: N/A
DM_CONTACT_INFO: Nathan Howard; nathan.h.howard@noaa.gov
PROJECT_INFO: USOS, summer 2024. https://csl.noaa.gov/groups/csl7/measurements/2024usos/
STIPULATIONS_ON_USE: Users are strongly encouraged to contact the PI for proper data usage.
OTHER_COMMENTS: 
REVISION: RA
RA: Preliminary Data; For in-field use only
starttime_UTC, HNO3_NOAACIMS
     0, 292.561
    60, 289.354
   120, 287.947
   180, 288.504
   240, 299.920
   300, 308.662
   360, 290.295
   420, 289.428
   480, 298.075
   540, 298.993
   600, 301.177
   660, 292.191
   720, -9999.000
   780, 248.487
   840, 264.057
   900, 271.798
   960, 269.690
  1020, 283.182
  1080, 286.547
  1140, 284.056
  1200, 265.462
  1260, 260.599
  1320, 260.728
  1380, 265.836
  1440, 261.301
  1500, 253.801
  1560, 251.786
  1620, 237.310
  1680, 249.796
  1740, 255.625
  1800, 325.058
  1860, 387.261
  1920, 425.446
  1980, 434.979
  2040, 443.752
  2100, 445.901
  2160, 457.519
  2220, 455.026
  2280, 413.122
  2340, 384.372
  2400, 398.620
  2460, 413.972
  2520, 415.489
  2580, -9999.000
  2640, 401.816
  2700, 379.152
  2760, 388.786
  2820, 391.236
  2880, 372.984
  2940, 348.661
  3000, 353.050
  3060, 368.435
  3120, 391.466
  3180, 369.456
  3240, 353.498
  3300, 372.967
  3360, 377.891
  3420, 387.188
  3480, 397.209
  3540, 394.973
  3600, 404.704
  3660, 393.872
  3720, 392.359
  3780, 386.067
  3840, 378.966
  3900, 374.287
  3960, 371.828
  4020, 381.243
  4080, 387.476
  4140, 390.399
  4200, 393.393
  4260, 395.508
  4320, 371.845
  4380, 355.233
  4440, -9999.000
  4500, 338.241
  4560, 348.450
  4620, 366.983
  4680, 369.699
  4740, 363.394
  4800, 369.786
  4860, 374.119
  4920, 387.852
  4980, 371.301
  5040, 370.260
  5100, 367.851
  5160, 368.936
  5220, 380.916
  5280, 383.669
  5340, 383.894
  5400, 404.087
  5460, 402.966
  5520, 373.828
  5580, 355.655
  5640, 343.054
  5700, 344.504
  5760, 351.494
  5820, 355.665
  5880, 339.250
  5940, 355.612
  6000, 358.757
  6060, 345.791
  6120, 338.439
  6180, 319.866
  6240, 290.918
  6300, 282.227
  6360, 281.873
  6420, 294.506
  6480, 285.069
  6540, 283.670
  6600, 294.685
  6660, 282.201
  6720, 276.037
  6780, 275.987
  6840, 280.551
  6900, 283.143
  6960, 272.550
  7020, 265.678
  7080, 255.246
  7140, 238.565
  7200, 258.862
  7260, 250.531
  7320, 254.331
  7380, 250.644
  7440, 242.977
  7500, 249.859
  7560, 243.456
  7620, 235.344
  7680, 232.107
  7740, 237.221
  7800, 234.712
  7860, 234.558
  7920, 229.795
  7980, 226.022
  8040, 211.638
  8100, -9999.000
  8160, 209.779
  8220, 204.412
  8280, 203.128
  8340, 198.288
  8400, 199.340
  8460, 200.365
  8520, 192.182
  8580, 197.994
  8640, 194.323
  8700, 207.234
  8760, 199.603
  8820, 190.883
  8880, 192.122
  8940, 203.031
  9000, 194.011
  9060, 172.633
  9120, 185.092
  9180, 187.076
  9240, 190.173
  9300, -9999.000
  9360, 161.343
  9420, 153.164
  9480, 145.832
  9540, 145.950
  9600, 145.081
  9660, 144.414
  9720, 145.873
  9780, 140.360
  9840, 130.529
  9900, 121.396
  9960, 119.613
 10020, 116.171
 10080, 123.586
 10140, 126.784
 10200, 113.155
 10260, 103.073
 10320, 114.877
 10380, 126.692
 10440, 136.053
 10500, 154.297
 10560, 156.840
 10620, 176.176
 10680, 178.948
 10740, 168.590
 10800, 165.781
 10860, 187.515
 10920, 193.861
 10980, 182.714
 11040, 179.721
 11100, 175.296
 11160, 167.817
 11220, 172.786
 11280, 172.863
 11340, 167.901
 11400, 160.673
 11460, 164.345
 11520, 173.944
 11580, 145.993
 11640, 164.813
 11700, 174.291
 11760, 171.994
 11820, 178.503
 11880, 177.329
 11940, 183.336
 12000, 178.134
 12060, 184.047
 12120, 178.835
 12180, 166.736
 12240, 166.881
 12300, 163.112
 12360, 163.173
 12420, 160.408
 12480, 157.608
 12540, 152.952
 12600, 155.057
 12660, 158.257
 12720, 154.732
 12780, 151.686
 12840, 140.386
 12900, 151.111
 12960, 149.864
 13020, 145.831
 13080, 141.446
 13140, 139.343
 13200, 140.178
 13260, 135.179
 13320, 133.894
 13380, 150.439
 13440, 144.162
 13500, 140.951
 13560, 130.593
 13620, 136.128
 13680, 143.141
 13740, 132.427
 13800, 127.358
 13860, 132.221
 13920, 132.253
 13980, 137.596
 14040, 139.729
 14100, 133.366
 14160, 132.451
 14220, 131.125
 14280, 129.129
 14340, 131.000
 14400, 128.282
 14460, 126.658
 14520, 131.220
 14580, 140.792
 14640, 139.760
 14700, 130.234
 14760, 129.975
 14820, 134.303
 14880, 125.913
 14940, 124.966
 15000, 132.052
 15060, 114.738
 15120, 109.107
 15180, 113.282
 15240, 128.437
 15300, 134.404
 15360, 131.470
 15420, 137.429
 15480, 135.341
 15540, 134.361
 15600, 122.447
 15660, 123.755
 15720, 144.233
 15780, 145.110
 15840, 138.821
 15900, 141.769
 15960, 145.556
 16020, 146.989
 16080, 153.123
 16140, 152.328
 16200, 144.625
 16260, 144.842
 16320, 141.443
 16380, 145.761
 16440, 142.533
 16500, 137.131
 16560, 133.461
 16620, 137.404
 16680, -9999.000
 16740, 121.825
 16800, 121.997
 16860, 135.667
 16920, 144.094
 16980, 143.173
 17040, 141.064
 17100, 124.434
 17160, 120.312
 17220, 126.666
 17280, 138.739
 17340, 140.467
 17400, 145.735
 17460, 149.571
 17520, 150.276
 17580, 145.375
 17640, 145.300
 17700, 152.268
 17760, 155.886
 17820, 160.225
 17880, 153.741
 17940, 151.859
 18000, 148.303
 18060, 137.358
 18120, 145.651
 18180, 151.324
 18240, 150.983
 18300, 145.830
 18360, 149.774
 18420, 147.245
 18480, 145.435
 18540, -9999.000
 18600, 141.221
 18660, 144.810
 18720, 150.147
 18780, 151.388
 18840, 142.747
 18900, 133.136
 18960, 122.897
 19020, 132.415
 19080, 144.868
 19140, 147.058
 19200, 139.372
 19260, 140.904
 19320, 129.691
 19380, 129.887
 19440, 135.778
 19500, 139.211
 19560, 134.972
 19620, 138.077
 19680, 134.719
 19740, 128.133
 19800, 130.627
 19860, 138.942
 19920, 141.588
 19980, 142.809
 20040, 143.353
 20100, 144.257
 20160, 134.048
 20220, 138.238
 20280, 141.623
 20340, 136.576
 20400, -9999.000
 20460, 127.521
 20520, 126.200
 20580, 128.518
 20640, 130.849
 20700, 127.443
 20760, 125.315
 20820, 125.331
 20880, 125.648
 20940, 128.038
 21000, 127.427
 21060, 116.804
 21120, 107.561
 21180, 101.930
 21240, 98.420
 21300, 101.063
 21360, 101.666
 21420, 101.456
 21480, 98.553
 21540, 98.846
 21600, 96.777
 21660, 94.784
 21720, 94.143
 21780, 96.612
 21840, 90.508
 21900, 88.294
 21960, 95.209
 22020, 97.691
 22080, 101.235
 22140, 100.228
 22200, 97.043
 22260, 99.349
 22320, 99.396
 22380, 99.566
 22440, 101.070
 22500, 95.766
 22560, 89.906
 22620, 91.267
 22680, 99.167
 22740, 95.924
 22800, 93.597
 22860, 92.489
 22920, 90.252
 22980, 87.688
 23040, 89.595
 23100, 86.516
 23160, 86.477
 23220, 91.941
 23280, 89.860
 23340, 89.635
 23400, 86.546
 23460, 83.166
 23520, 82.750
 23580, 84.280
 23640, 82.708
 23700, 78.831
 23760, 80.849
 23820, 82.546
 23880, 83.651
 23940, 82.489
 24000, 80.424
 24060, -9999.000
 24120, 80.968
 24180, 82.486
 24240, 80.544
 24300, 79.100
 24360, 76.219
 24420, 78.300
 24480, 76.638
 24540, 76.132
 24600, 76.504
 24660, 72.536
 24720, 64.471
 24780, 61.403
 24840, 58.331
 24900, 59.596
 24960, 63.678
 25020, 64.168
 25080, 68.448
 25140, 66.848
 25200, 65.610
 25260, 68.623
 25320, 69.103
 25380, 65.511
 25440, 62.921
 25500, 62.276
 25560, 62.886
 25620, 62.949
 25680, 63.559
 25740, 61.355
 25800, 58.458
 25860, 58.274
 25920, 55.638
 25980, 59.610
 26040, 57.785
 26100, 61.056
 26160, 56.788
 26220, 52.636
 26280, 54.130
 26340, 55.644
 26400, 56.637
 26460, 53.874
 26520, 53.031
 26580, 60.419
 26640, 60.465
 26700, 56.024
 26760, 54.585
 26820, 56.168
 26880, 58.317
 26940, 58.251
 27000, 60.563
 27060, 59.575
 27120, 61.535
 27180, 64.554
 27240, 61.858
 27300, 63.256
 27360, 64.757
 27420, 65.220
 27480, 65.027
 27540, 65.599
 27600, 67.883
 27660, 72.239
 27720, 71.057
 27780, -9999.000
 27840, 72.076
 27900, 74.160
 27960, 73.708
 28020, 74.129
 28080, 74.648
 28140, 77.925
 28200, 78.715
 28260, 75.110
 28320, 71.308
 28380, 70.414
 28440, 72.534
 28500, 74.725
 28560, 68.110
 28620, 67.097
 28680, 68.764
 28740, 68.834
 28800, 65.736
 28860, 66.862
 28920, 66.847
 28980, 63.538
 29040, 62.632
 29100, 60.519
 29160, 59.632
 29220, 63.910
 29280, 61.484
 29340, 52.194
 29400, 51.746
 29460, 50.166
 29520, 55.032
 29580, 56.093
 29640, 62.114
 29700, 59.672
 29760, 58.085
 29820, 55.455
 29880, 55.313
 29940, 57.187
 30000, 55.922
 30060, 52.959
 30120, 51.804
 30180, 53.878
 30240, 56.267
 30300, 54.098
 30360, 52.600
 30420, 55.644
 30480, 56.609
 30540, 54.997
 30600, 56.445
 30660, 57.970
 30720, 60.688
 30780, 59.404
 30840, 60.119
 30900, 61.575
 30960, 61.716
 31020, 58.282
 31080, 59.628
 31140, 60.003
 31200, 60.354
 31260, 56.497
 31320, 54.637
 31380, 57.265
 31440, 57.907
 31500, 61.769
 31560, 58.534
 31620, 54.048
 31680, 54.354
 31740, 53.688
 31800, 52.997
 31860, 49.394
 31920, 49.784
 31980, 51.064
 32040, 51.359
 32100, 50.901
 32160, 48.861
 32220, 48.084
 32280, 49.506
 32340, 45.563
 32400, 46.675
 32460, 47.044
 32520, 46.229
 32580, 43.646
 32640, 41.929
 32700, 43.783
 32760, 44.779
 32820, 42.972
 32880, 40.663
 32940, 43.828
 33000, 43.991
 33060, 45.731
 33120, 47.063
 33180, 46.637
 33240, 44.248
 33300, 44.826
 33360, 46.437
 33420, 49.479
 33480, 48.536
 33540, 47.037
 33600, 50.955
 33660, 53.048
 33720, 49.812
 33780, 48.590
 33840, 45.744
 33900, 44.090
 33960, 44.227
 34020, 48.466
 34080, 48.599
 34140, 52.916
 34200, 51.145
 34260, 50.164
 34320, 52.545
 34380, 57.248
 34440, 54.574
 34500, 56.441
 34560, 55.183
 34620, 54.505
 34680, 56.641
 34740, 55.656
 34800, 53.043
 34860, 50.537
 34920, 50.404
 34980, 50.441
 35040, 47.087
 35100, 49.723
 35160, -9999.000
 35220, 56.109
 35280, 55.515
 35340, 50.936
 35400, 47.909
 35460, 46.142
 35520, 45.831
 35580, 43.743
 35640, 45.469
 35700, 46.598
 35760, 46.773
 35820, 44.597
 35880, 48.212
 35940, 49.286
 36000, 47.337
 36060, 45.652
 36120, 44.858
 36180, 44.257
 36240, 44.800
 36300, 42.670
 36360, 43.570
 36420, 45.541
 36480, 45.987
 36540, 45.333
 36600, 44.412
 36660, 43.921
 36720, 42.549
 36780, 39.700
 36840, 41.031
 36900, 41.408
 36960, 42.355
 37020, -9999.000
 37080, 43.777
 37140, 44.496
 37200, 46.314
 37260, 42.566
 37320, 40.153
 37380, 39.894
 37440, 40.459
 37500, 42.258
 37560, 42.568
 37620, 44.061
 37680, 44.709
 37740, 43.164
 37800, 41.681
 37860, 43.066
 37920, 40.981
 37980, 41.188
 38040, 37.589
 38100, 38.559
 38160, 40.068
 38220, 36.594
 38280, 36.692
 38340, 38.513
 38400, 39.411
 38460, 34.416
 38520, 34.928
 38580, 37.265
 38640, 36.005
 38700, 37.015
 38760, 36.225
 38820, 38.054
 38880, -9999.000
 38940, 41.382
 39000, 43.716
 39060, 45.737
 39120, 45.978
 39180, 46.863
 39240, 49.029
 39300, 50.269
 39360, 50.677
 39420, 47.713
 39480, 49.056
 39540, 47.616
 39600, 47.855
 39660, 47.315
 39720, 46.450
 39780, 46.151
 39840, 46.396
 39900, 43.040
 39960, 42.230
 40020, 42.607
 40080, 43.399
 40140, 42.768
 40200, 43.874
 40260, 43.042
 40320, 43.930
 40380, 41.176
 40440, 42.275
 40500, 40.985
 40560, 44.906
 40620, 40.158
 40680, 35.629
 40740, 39.367
 40800, 40.046
 40860, 43.977
 40920, 44.744
 40980, 43.475
 41040, 47.977
 41100, 43.202
 41160, 37.558
 41220, 35.462
 41280, 36.516
 41340, 35.580
 41400, 33.414
 41460, 37.633
 41520, 35.333
 41580, 36.008
 41640, 36.636
 41700, 39.913
 41760, 38.976
 41820, 40.340
 41880, 40.116
 41940, 40.840
 42000, 40.416
 42060, 38.370
 42120, 39.799
 42180, 40.806
 42240, 38.859
 42300, 37.215
 42360, 39.543
 42420, 41.989
 42480, 44.086
 42540, -9999.000
 42600, 40.458
 42660, 41.592
 42720, 42.404
 42780, 45.140
 42840, 45.888
 42900, 40.269
 42960, 38.885
 43020, 42.074
 43080, 43.784
 43140, 45.045
 43200, 42.465
 43260, 43.056
 43320, 44.372
 43380, 44.878
 43440, 43.949
 43500, 44.260
 43560, 42.202
 43620, 42.615
 43680, 42.982
 43740, 43.939
 43800, 42.500
 43860, 42.285
 43920, 39.800
 43980, 32.248
 44040, 31.403
 44100, 34.867
 44160, 34.104
 44220, 33.805
 44280, 33.165
 44340, 31.921
 44400, -9999.000
 44460, 29.477
 44520, 31.557
 44580, 33.996
 44640, 32.566
 44700, 32.771
 44760, 33.145
 44820, 34.082
 44880, 32.860
 44940, 34.552
 45000, 37.398
 45060, 31.773
 45120, 25.261
 45180, 26.812
 45240, 29.204
 45300, 26.142
 45360, 29.834
 45420, 32.237
 45480, 31.587
 45540, 33.477
 45600, 36.994
 45660, 39.207
 45720, 35.555
 45780, 31.470
 45840, 34.009
 45900, 34.675
 45960, 34.397
 46020, 35.826
 46080, 36.736
 46140, 38.650
 46200, 36.702
 46260, -9999.000
 46320, 35.587
 46380, 31.263
 46440, 31.166
 46500, 28.597
 46560, 28.447
 46620, 27.754
 46680, 26.271
 46740, 25.952
 46800, 28.932
 46860, 41.212
 46920, 131.631
 46980, 133.247
 47040, 114.158
 47100, 106.110
 47160, 95.595
 47220, 91.915
 47280, 93.103
 47340, 84.912
 47400, 83.038
 47460, 82.742
 47520, 85.755
 47580, 82.094
 47640, 74.345
 47700, 60.417
 47760, 61.550
 47820, 62.709
 47880, 63.916
 47940, 66.888
 48000, 67.371
 48060, 66.417
 48120, 77.516
 48180, 77.864
 48240, 79.185
 48300, 82.089
 48360, 82.425
 48420, 82.071
 48480, 84.509
 48540, 80.714
 48600, 74.352
 48660, 69.790
 48720, 67.160
 48780, 70.801
 48840, 72.187
 48900, 74.155
 48960, 79.223
 49020, 88.976
 49080, 85.335
 49140, 77.064
 49200, 79.724
 49260, 81.098
 49320, 83.870
 49380, 85.895
 49440, 78.854
 49500, 79.167
 49560, 86.209
 49620, 91.083
 49680, 92.825
 49740, 94.124
 49800, 89.509
 49860, 91.817
 49920, 97.512
 49980, 102.939
 50040, 95.152
 50100, 95.941
 50160, 100.032
 50220, 100.140
 50280, 97.705
 50340, 95.626
 50400, 96.251
 50460, 98.586
 50520, 98.519
 50580, 94.798
 50640, 88.610
 50700, 91.507
 50760, 88.279
 50820, 93.435
 50880, 97.409
 50940, 94.129
 51000, 95.776
 51060, 92.941
 51120, 96.734
 51180, 103.394
 51240, 104.147
 51300, 104.348
 51360, 98.020
 51420, 92.086
 51480, 104.257
 51540, 111.156
 51600, 118.389
 51660, 120.142
 51720, 118.430
 51780, 121.373
 51840, 112.702
 51900, 112.849
 51960, 125.156
 52020, 133.014
 52080, 133.541
 52140, 131.047
 52200, 130.126
 52260, 134.729
 52320, 124.879
 52380, 119.902
 52440, 124.148
 52500, 134.093
 52560, 139.817
 52620, 132.778
 52680, 121.280
 52740, 125.863
 52800, 132.629
 52860, 137.583
 52920, 146.465
 52980, 152.271
 53040, 156.427
 53100, 151.877
 53160, 159.573
 53220, 156.755
 53280, 157.046
 53340, 148.295
 53400, 145.453
 53460, 152.960
 53520, 162.931
 53580, 178.579
 53640, -9999.000
 53700, 158.810
 53760, 184.994
 53820, 198.216
 53880, 200.134
 53940, 200.317
 54000, 201.789
 54060, 188.987
 54120, 196.764
 54180, 198.715
 54240, 205.183
 54300, 219.313
 54360, 223.831
 54420, 237.728
 54480, 242.813
 54540, 260.849
 54600, 262.131
 54660, 262.958
 54720, 266.292
 54780, 274.412
 54840, 275.419
 54900, 258.335
 54960, 269.396
 55020, 263.455
 55080, 251.489
 55140, 263.990
 55200, 276.273
 55260, 287.990
 55320, 295.268
 55380, 279.922
 55440, 270.085
 55500, -9999.000
 55560, 268.058
 55620, 271.243
 55680, 272.680
 55740, 286.774
 55800, 289.655
 55860, 295.565
 55920, 295.496
 55980, 291.189
 56040, 297.226
 56100, 296.033
 56160, 300.795
 56220, 300.442
 56280, 313.604
 56340, 303.565
 56400, 297.178
 56460, 293.559
 56520, 291.826
 56580, 298.546
 56640, 312.701
 56700, 312.297
 56760, 300.291
 56820, 327.429
 56880, 325.607
 56940, 339.127
 57000, 345.455
 57060, 355.342
 57120, 338.417
 57180, 343.954
 57240, 369.099
 57300, 364.512
 57360, -9999.000
 57420, 324.206
 57480, 342.006
 57540, 343.778
 57600, 342.773
 57660, 356.107
 57720, 367.820
 57780, 379.743
 57840, 381.885
 57900, 386.944
 57960, 376.411
 58020, 378.288
 58080, 410.968
 58140, 428.167
 58200, 411.535
 58260, 406.711
 58320, 395.437
 58380, 411.933
 58440, 414.152
 58500, 398.013
 58560, 435.791
 58620, 457.654
 58680, 483.167
 58740, 490.128
 58800, 485.554
 58860, 491.457
 58920, 521.463
 58980, 546.631
 59040, 547.355
 59100, 536.482
 59160, 534.505
 59220, 489.684
 59280, 445.754
 59340, 442.879
 59400, 490.900
 59460, 482.932
 59520, 523.802
 59580, 570.287
 59640, 598.472
 59700, 635.676
 59760, 652.077
 59820, 645.309
 59880, 652.034
 59940, 646.576
 60000, 640.634
 60060, 619.395
 60120, 593.377
 60180, 525.661
 60240, 523.539
 60300, 564.353
 60360, 583.621
 60420, 572.303
 60480, 578.335
 60540, 571.112
 60600, 558.863
 60660, 658.882
 60720, 667.195
 60780, 654.814
 60840, 608.292
 60900, 595.428
 60960, 597.546
 61020, -9999.000
 61080, 577.617
 61140, 599.809
 61200, 578.818
 61260, 549.563
 61320, 582.859
 61380, 588.588
 61440, 565.952
 61500, 511.755
 61560, 480.823
 61620, 578.252
 61680, 627.816
 61740, 624.678
 61800, 569.202
 61860, 634.152
 61920, 634.360
 61980, 648.525
 62040, 612.698
 62100, 625.602
 62160, 643.698
 62220, 666.588
 62280, 716.269
 62340, 724.616
 62400, 735.193
 62460, 750.294
 62520, 724.272
 62580, 708.848
 62640, 736.886
 62700, 702.120
 62760, 720.242
 62820, 760.759
 62880, -9999.000
 62940, 717.494
 63000, 768.482
 63060, 801.199
 63120, 874.850
 63180, 876.481
 63240, 832.331
 63300, 823.480
 63360, 824.582
 63420, 801.298
 63480, 771.644
 63540, 762.425
 63600, 799.678
 63660, 797.190
 63720, 753.054
 63780, 787.574
 63840, 703.854
 63900, 618.070
 63960, 578.027
 64020, 571.490
 64080, 562.193
 64140, 547.435
 64200, 518.654
 64260, 506.977
 64320, 486.066
 64380, 466.332
 64440, 494.044
 64500, 503.930
 64560, 534.601
 64620, 588.541
 64680, 586.769
 64740, -9999.000
 64800, 500.555
 64860, 556.568
 64920, 602.215
 64980, 641.196
 65040, 626.916
 65100, 647.389
 65160, 672.648
 65220, 729.255
 65280, 729.454
 65340, 700.876
 65400, 708.757
 65460, 750.206
 65520, 786.367
 65580, 806.809
 65640, 769.504
 65700, 720.505
 65760, 742.776
 65820, 758.843
 65880, 730.039
 65940, 737.450
 66000, 719.310
 66060, 684.946
 66120, 701.375
 66180, 737.605
 66240, 766.005
 66300, 770.469
 66360, 741.010
 66420, 735.571
 66480, 742.475
 66540, 731.557
 66600, 627.273
 66660, 622.668
 66720, 669.670
 66780, 668.737
 66840, 676.030
 66900, 674.617
 66960, 684.203
 67020, 719.516
 67080, 754.901
 67140, 758.791
 67200, 664.482
 67260, 802.857
 67320, -9999.000
 67380, -9999.000
 67440, -9999.000
 67500, -9999.000
 67560, -9999.000
 67620, -9999.000
 67680, -9999.000
 67740, -9999.000
 67800, -9999.000
 67860, -9999.000
 67920, -9999.000
 67980, -9999.000
 68040, -9999.000
 68100, -9999.000
 68160, -9999.000
 68220, -9999.000
 68280, -9999.000
 68340, -9999.000
 68400, -9999.000
 68460, -9999.000
 68520, -9999.000
 68580, -9999.000
 68640, -9999.000
 68700, -9999.000
 68760, -9999.000
 68820, -9999.000
 68880, -9999.000
 68940, -9999.000
 69000, -9999.000
 69060, -9999.000
 69120, -9999.000
 69180, -9999.000
 69240, -9999.000
 69300, -9999.000
 69360, -9999.000
 69420, -9999.000
 69480, -9999.000
 69540, -9999.000
 69600, -9999.000
 69660, -9999.000
 69720, -9999.000
 69780, -9999.000
 69840, -9999.000
 69900, -9999.000
 69960, -9999.000
 70020, -9999.000
 70080, -9999.000
 70140, -9999.000
 70200, -9999.000
 70260, -9999.000
 70320, -9999.000
 70380, -9999.000
 70440, -9999.000
 70500, -9999.000
 70560, -9999.000
 70620, -9999.000
 70680, -9999.000
 70740, -9999.000
 70800, -9999.000
 70860, -9999.000
 70920, -9999.000
 70980, -9999.000
 71040, -9999.000
 71100, -9999.000
 71160, -9999.000
 71220, -9999.000
 71280, -9999.000
 71340, -9999.000
 71400, -9999.000
 71460, -9999.000
 71520, -9999.000
 71580, -9999.000
 71640, -9999.000
 71700, -9999.000
 71760, -9999.000
 71820, -9999.000
 71880, -9999.000
 71940, -9999.000
 72000, -9999.000
 72060, -9999.000
 72120, -9999.000
 72180, -9999.000
 72240, -9999.000
 72300, -9999.000
 72360, -9999.000
 72420, -9999.000
 72480, -9999.000
 72540, -9999.000
 72600, -9999.000
 72660, -9999.000
 72720, -9999.000
 72780, -9999.000
 72840, -9999.000
 72900, -9999.000
 72960, -9999.000
 73020, -9999.000
 73080, -9999.000
 73140, -9999.000
 73200, -9999.000
 73260, -9999.000
 73320, -9999.000
 73380, -9999.000
 73440, -9999.000
 73500, -9999.000
 73560, -9999.000
 73620, -9999.000
 73680, -9999.000
 73740, -9999.000
 73800, -9999.000
 73860, -9999.000
 73920, -9999.000
 73980, -9999.000
 74040, -9999.000
 74100, -9999.000
 74160, -9999.000
 74220, -9999.000
 74280, -9999.000
 74340, -9999.000
 74400, -9999.000
 74460, -9999.000
 74520, -9999.000
 74580, -9999.000
 74640, -9999.000
 74700, -9999.000
 74760, -9999.000
 74820, -9999.000
 74880, -9999.000
 74940, -9999.000
 75000, -9999.000
 75060, -9999.000
 75120, -9999.000
 75180, -9999.000
 75240, -9999.000
 75300, -9999.000
 75360, -9999.000
 75420, -9999.000
 75480, -9999.000
 75540, -9999.000
 75600, -9999.000
 75660, -9999.000
 75720, -9999.000
 75780, -9999.000
 75840, -9999.000
 75900, -9999.000
 75960, -9999.000
 76020, -9999.000
 76080, -9999.000
 76140, -9999.000
 76200, -9999.000
 76260, -9999.000
 76320, -9999.000
 76380, -9999.000
 76440, -9999.000
 76500, -9999.000
 76560, -9999.000
 76620, -9999.000
 76680, -9999.000
 76740, -9999.000
 76800, -9999.000
 76860, -9999.000
 76920, -9999.000
 76980, -9999.000
 77040, -9999.000
 77100, -9999.000
 77160, -9999.000
 77220, -9999.000
 77280, -9999.000
 77340, -9999.000
 77400, -9999.000
 77460, -9999.000
 77520, -9999.000
 77580, -9999.000
 77640, -9999.000
 77700, -9999.000
 77760, -9999.000
 77820, -9999.000
 77880, -9999.000
 77940, -9999.000
 78000, -9999.000
 78060, -9999.000
 78120, -9999.000
 78180, -9999.000
 78240, -9999.000
 78300, -9999.000
 78360, -9999.000
 78420, -9999.000
 78480, -9999.000
 78540, -9999.000
 78600, -9999.000
 78660, -9999.000
 78720, -9999.000
 78780, -9999.000
 78840, -9999.000
 78900, -9999.000
 78960, -9999.000
 79020, -9999.000
 79080, -9999.000
 79140, -9999.000
 79200, -9999.000
 79260, -9999.000
 79320, -9999.000
 79380, -9999.000
 79440, -9999.000
 79500, -9999.000
 79560, -9999.000
 79620, -9999.000
 79680, -9999.000
 79740, -9999.000
 79800, -9999.000
 79860, -9999.000
 79920, -9999.000
 79980, -9999.000
 80040, -9999.000
 80100, -9999.000
 80160, -9999.000
 80220, -9999.000
 80280, -9999.000
 80340, -9999.000
 80400, -9999.000
 80460, -9999.000
 80520, -9999.000
 80580, -9999.000
 80640, -9999.000
 80700, -9999.000
 80760, -9999.000
 80820, -9999.000
 80880, -9999.000
 80940, -9999.000
 81000, -9999.000
 81060, -9999.000
 81120, -9999.000
 81180, -9999.000
 81240, -9999.000
 81300, -9999.000
 81360, -9999.000
 81420, -9999.000
 81480, -9999.000
 81540, -9999.000
 81600, -9999.000
 81660, -9999.000
 81720, -9999.000
 81780, -9999.000
 81840, -9999.000
 81900, -9999.000
 81960, -9999.000
 82020, -9999.000
 82080, -9999.000
 82140, -9999.000
 82200, -9999.000
 82260, -9999.000
 82320, -9999.000
 82380, -9999.000
 82440, -9999.000
 82500, -9999.000
 82560, -9999.000
 82620, -9999.000
 82680, -9999.000
 82740, -9999.000
 82800, -9999.000
 82860, -9999.000
 82920, -9999.000
 82980, -9999.000
 83040, -9999.000
 83100, -9999.000
 83160, -9999.000
 83220, -9999.000
 83280, -9999.000
 83340, -9999.000
 83400, -9999.000
 83460, -9999.000
 83520, -9999.000
 83580, -9999.000
 83640, -9999.000
 83700, -9999.000
 83760, -9999.000
 83820, -9999.000
 83880, -9999.000
 83940, -9999.000
 84000, -9999.000
 84060, -9999.000
 84120, -9999.000
 84180, -9999.000
 84240, -9999.000
 84300, -9999.000
 84360, -9999.000
 84420, -9999.000
 84480, -9999.000
 84540, -9999.000
 84600, -9999.000
 84660, -9999.000
 84720, -9999.000
 84780, -9999.000
 84840, -9999.000
 84900, -9999.000
 84960, -9999.000
 85020, -9999.000
 85080, -9999.000
 85140, -9999.000
 85200, -9999.000
 85260, -9999.000
 85320, -9999.000
 85380, -9999.000
 85440, -9999.000
 85500, -9999.000
 85560, -9999.000
 85620, -9999.000
 85680, -9999.000
 85740, -9999.000
 85800, -9999.000
 85860, -9999.000
 85920, -9999.000
 85980, -9999.000
 86040, -9999.000
 86100, -9999.000
 86160, -9999.000
 86220, -9999.000
 86280, -9999.000
 86340, -9999.000
