33, 1001
Michael A Robinson, Chris Jernigan, Subi Thakali
NOAA ESRL Chemical Sciences Laboratory and CIRES, U. of Colorado
NOAA Iodide CIMS Instrument
USOS
1, 1
2024, 08, 01, 2024, 08, 02
1
starttime_UTC, seconds_past_midnight, seconds_of_day_since_00:00:00_UTC
1
1
-9999
HNO3_NOAACIMS, pptv, Gas_HNO3_InSitu_S_AVMR, 
0
18
PI_CONTACT_INFO: 325 Broadway, R/CSD 7, Boulder, Colorado 80305; michael.a.robinson@noaa.gov; chris.jernigan@noaa.gov;
PLATFORM: NOAA CSL Mobile Lab
LOCATION: SLC, Utah
ASSOCIATED_DATA: 1Hz data also available on request.
INSTRUMENT_INFO: NOAA I- ToF CIMS
DATA_INFO: All data in parts per trillion by volume (pptv). 1 Hz data is available upon request.
UNCERTAINTY: TBD
ULOD_FLAG: -7777
ULOD_VALUE: N/A
LLOD_FLAG: -8888
LLOD_VALUE: N/A
DM_CONTACT_INFO: Nathan Howard; nathan.h.howard@noaa.gov
PROJECT_INFO: USOS, summer 2024. https://csl.noaa.gov/groups/csl7/measurements/2024usos/
STIPULATIONS_ON_USE: Users are strongly encouraged to contact the PI for proper data usage.
OTHER_COMMENTS: 
REVISION: RA
RA: Preliminary Data; For in-field use only
starttime_UTC, HNO3_NOAACIMS
     0, 597.561
    60, 602.917
   120, 610.336
   180, 625.144
   240, 598.416
   300, 594.424
   360, 588.488
   420, 598.429
   480, 585.807
   540, -9999.000
   600, 536.781
   660, 558.300
   720, 566.697
   780, 599.860
   840, 629.355
   900, 633.262
   960, 556.308
  1020, 523.361
  1080, 548.532
  1140, 567.992
  1200, 582.532
  1260, 578.507
  1320, 556.008
  1380, 521.053
  1440, 531.093
  1500, 532.783
  1560, 520.042
  1620, 554.904
  1680, 537.531
  1740, 532.973
  1800, 538.769
  1860, 556.313
  1920, 537.995
  1980, 559.490
  2040, 557.937
  2100, 558.186
  2160, 552.061
  2220, 531.501
  2280, 561.405
  2340, 578.534
  2400, -9999.000
  2460, 495.861
  2520, 528.092
  2580, 552.296
  2640, 552.667
  2700, 543.922
  2760, 526.543
  2820, 518.541
  2880, 523.771
  2940, 527.280
  3000, 516.882
  3060, 541.141
  3120, 559.729
  3180, 554.080
  3240, 527.994
  3300, 518.841
  3360, 518.214
  3420, 535.270
  3480, 543.878
  3540, 527.204
  3600, 521.959
  3660, 548.646
  3720, 534.305
  3780, 501.020
  3840, 507.718
  3900, 490.097
  3960, 468.800
  4020, 459.440
  4080, 438.417
  4140, 418.645
  4200, 417.396
  4260, 392.780
  4320, 401.353
  4380, 394.650
  4440, 390.477
  4500, 393.011
  4560, 400.668
  4620, 372.746
  4680, 373.545
  4740, 384.710
  4800, 389.590
  4860, 368.669
  4920, 359.605
  4980, 379.188
  5040, 406.804
  5100, 401.436
  5160, 404.904
  5220, 419.047
  5280, 405.072
  5340, 419.694
  5400, 401.205
  5460, 395.708
  5520, 392.912
  5580, 389.414
  5640, 400.006
  5700, 391.451
  5760, 375.409
  5820, 371.890
  5880, 367.036
  5940, 344.006
  6000, 342.814
  6060, 362.362
  6120, 361.469
  6180, 361.445
  6240, 378.424
  6300, 393.269
  6360, 402.419
  6420, 379.733
  6480, 373.875
  6540, 373.277
  6600, 356.960
  6660, 352.823
  6720, 354.173
  6780, 378.747
  6840, 388.995
  6900, 398.975
  6960, 400.227
  7020, 391.435
  7080, 382.537
  7140, 372.711
  7200, 369.385
  7260, 370.338
  7320, 371.278
  7380, 370.624
  7440, 355.679
  7500, 339.887
  7560, 352.657
  7620, 365.959
  7680, 375.275
  7740, 366.023
  7800, 355.973
  7860, 365.157
  7920, 355.457
  7980, 342.221
  8040, 329.487
  8100, 316.722
  8160, 326.647
  8220, 338.574
  8280, 344.812
  8340, 332.537
  8400, 324.521
  8460, 309.412
  8520, 274.403
  8580, 259.417
  8640, 239.247
  8700, 238.221
  8760, 240.741
  8820, 248.223
  8880, 241.135
  8940, 232.450
  9000, 233.998
  9060, 241.073
  9120, 254.202
  9180, 252.731
  9240, 251.523
  9300, 260.506
  9360, 266.838
  9420, 283.251
  9480, 283.835
  9540, 281.965
  9600, 286.475
  9660, 293.123
  9720, 290.966
  9780, -9999.000
  9840, 267.261
  9900, 274.206
  9960, 266.074
 10020, 264.159
 10080, 274.902
 10140, 286.682
 10200, 288.587
 10260, 290.813
 10320, 297.308
 10380, 296.412
 10440, 292.680
 10500, 285.664
 10560, 281.485
 10620, 271.890
 10680, 263.619
 10740, 254.959
 10800, 253.329
 10860, 251.950
 10920, 252.686
 10980, 244.525
 11040, 238.444
 11100, 240.680
 11160, 243.146
 11220, 240.373
 11280, 238.196
 11340, 244.415
 11400, 239.458
 11460, 236.757
 11520, 234.670
 11580, 233.845
 11640, -9999.000
 11700, 225.043
 11760, 227.015
 11820, 230.754
 11880, 228.877
 11940, 227.462
 12000, 232.201
 12060, 239.289
 12120, 229.816
 12180, 225.383
 12240, 229.792
 12300, 220.526
 12360, 210.666
 12420, 208.508
 12480, 211.781
 12540, 208.371
 12600, 205.566
 12660, 204.167
 12720, 204.085
 12780, 197.953
 12840, 190.062
 12900, 189.465
 12960, 179.352
 13020, 188.892
 13080, 186.469
 13140, 193.199
 13200, 186.781
 13260, 180.842
 13320, 177.315
 13380, 184.202
 13440, 186.983
 13500, -9999.000
 13560, 178.941
 13620, 173.046
 13680, 154.978
 13740, 159.296
 13800, 172.127
 13860, 174.671
 13920, 162.022
 13980, 148.460
 14040, 131.068
 14100, 126.892
 14160, 137.653
 14220, 154.304
 14280, 154.073
 14340, 165.957
 14400, 167.834
 14460, 166.592
 14520, 173.011
 14580, 177.249
 14640, 181.364
 14700, 175.351
 14760, 173.333
 14820, 170.190
 14880, 166.306
 14940, 170.313
 15000, 177.474
 15060, 180.412
 15120, 171.647
 15180, 163.412
 15240, 157.936
 15300, 159.703
 15360, 172.589
 15420, 170.262
 15480, 171.332
 15540, 168.133
 15600, 163.502
 15660, 159.945
 15720, 155.077
 15780, 160.857
 15840, 162.903
 15900, 162.045
 15960, 159.953
 16020, 153.499
 16080, 157.109
 16140, 158.073
 16200, 159.678
 16260, 150.569
 16320, 146.173
 16380, 131.126
 16440, 122.617
 16500, 116.974
 16560, 121.984
 16620, 134.416
 16680, 130.172
 16740, 128.663
 16800, 133.059
 16860, 141.383
 16920, 144.909
 16980, 141.071
 17040, 133.552
 17100, 137.426
 17160, -9999.000
 17220, 144.257
 17280, 146.038
 17340, 152.032
 17400, 157.798
 17460, 162.439
 17520, 161.628
 17580, 155.477
 17640, 155.957
 17700, 163.389
 17760, 165.035
 17820, 167.345
 17880, 159.496
 17940, 147.095
 18000, 150.268
 18060, 152.353
 18120, 147.243
 18180, 144.587
 18240, 140.095
 18300, 136.371
 18360, 139.605
 18420, 140.480
 18480, 130.665
 18540, 120.593
 18600, 116.879
 18660, 117.507
 18720, 122.174
 18780, 132.189
 18840, 138.885
 18900, 135.463
 18960, 138.209
 19020, -9999.000
 19080, 152.854
 19140, 158.614
 19200, 153.777
 19260, 153.054
 19320, 152.068
 19380, 154.692
 19440, 158.689
 19500, 161.004
 19560, 158.053
 19620, 155.069
 19680, 146.528
 19740, 141.144
 19800, 132.472
 19860, 130.688
 19920, 129.058
 19980, 134.502
 20040, 123.223
 20100, 120.495
 20160, 121.219
 20220, 121.732
 20280, 126.354
 20340, 128.935
 20400, 130.785
 20460, 132.779
 20520, 138.260
 20580, 137.702
 20640, 136.781
 20700, 138.733
 20760, 138.307
 20820, 136.506
 20880, -9999.000
 20940, 136.995
 21000, 130.654
 21060, 125.031
 21120, 124.615
 21180, 127.105
 21240, 124.333
 21300, 122.337
 21360, 119.316
 21420, 118.861
 21480, 123.879
 21540, 124.765
 21600, 121.639
 21660, 115.953
 21720, 110.140
 21780, 111.748
 21840, 116.236
 21900, 113.571
 21960, 113.711
 22020, 111.217
 22080, 111.153
 22140, 111.589
 22200, 116.257
 22260, 115.370
 22320, 113.831
 22380, 117.249
 22440, 111.593
 22500, 114.927
 22560, 121.356
 22620, 120.597
 22680, 116.870
 22740, 118.176
 22800, 112.727
 22860, 105.280
 22920, 92.594
 22980, 86.240
 23040, 85.269
 23100, 74.086
 23160, 72.922
 23220, 74.626
 23280, 79.264
 23340, 76.419
 23400, 79.314
 23460, 90.831
 23520, 95.488
 23580, 93.506
 23640, 93.587
 23700, 87.858
 23760, 92.427
 23820, 88.083
 23880, 83.885
 23940, 86.405
 24000, 84.889
 24060, 85.648
 24120, 85.503
 24180, 93.262
 24240, 89.534
 24300, 90.921
 24360, 93.515
 24420, 96.234
 24480, 99.301
 24540, 100.940
 24600, 104.155
 24660, 102.312
 24720, 107.179
 24780, 113.427
 24840, 118.986
 24900, 119.165
 24960, 116.576
 25020, 118.876
 25080, 119.950
 25140, 119.701
 25200, 121.709
 25260, 122.536
 25320, 123.160
 25380, 128.198
 25440, 133.105
 25500, 130.342
 25560, 128.196
 25620, 127.741
 25680, 133.120
 25740, 133.907
 25800, 129.237
 25860, 125.294
 25920, 124.202
 25980, 125.516
 26040, 128.611
 26100, 131.654
 26160, 130.483
 26220, 128.961
 26280, 129.976
 26340, 133.189
 26400, 136.473
 26460, 137.863
 26520, 134.175
 26580, 138.506
 26640, 144.971
 26700, 142.908
 26760, 141.689
 26820, 142.452
 26880, 135.552
 26940, 136.044
 27000, 141.938
 27060, 142.962
 27120, 140.709
 27180, 135.977
 27240, 127.556
 27300, 125.541
 27360, 129.500
 27420, 120.023
 27480, 109.589
 27540, 108.351
 27600, 117.430
 27660, 119.353
 27720, 119.497
 27780, 116.408
 27840, 111.731
 27900, 107.379
 27960, 103.076
 28020, 108.582
 28080, 107.870
 28140, 107.609
 28200, 107.218
 28260, -9999.000
 28320, 123.777
 28380, 115.184
 28440, 107.004
 28500, 104.874
 28560, 104.040
 28620, 105.103
 28680, 103.528
 28740, 103.352
 28800, 108.416
 28860, 110.150
 28920, 106.765
 28980, 102.735
 29040, 96.813
 29100, 95.100
 29160, 94.414
 29220, 94.090
 29280, 92.996
 29340, 89.948
 29400, 90.608
 29460, 93.941
 29520, 95.926
 29580, 92.497
 29640, 89.763
 29700, 90.178
 29760, 90.615
 29820, 91.649
 29880, 95.854
 29940, 94.537
 30000, 93.163
 30060, 98.445
 30120, 91.180
 30180, 94.958
 30240, 90.762
 30300, 84.174
 30360, 85.999
 30420, 90.665
 30480, 89.385
 30540, 86.573
 30600, 91.430
 30660, 99.845
 30720, 98.424
 30780, 101.775
 30840, 97.985
 30900, 99.681
 30960, 103.043
 31020, 96.567
 31080, 96.563
 31140, 94.621
 31200, 97.263
 31260, 103.976
 31320, 110.754
 31380, 113.912
 31440, 115.509
 31500, 118.889
 31560, 126.860
 31620, 128.037
 31680, 127.207
 31740, 124.144
 31800, 126.832
 31860, 128.377
 31920, 134.772
 31980, -9999.000
 32040, 127.590
 32100, 125.098
 32160, 128.665
 32220, 133.762
 32280, 136.770
 32340, 140.216
 32400, 136.348
 32460, 133.977
 32520, 137.660
 32580, 141.103
 32640, 143.154
 32700, 140.563
 32760, 137.549
 32820, 140.870
 32880, 140.965
 32940, 143.456
 33000, 141.029
 33060, 137.887
 33120, 133.638
 33180, 136.881
 33240, 142.974
 33300, 144.031
 33360, 139.692
 33420, 138.589
 33480, 140.327
 33540, 143.692
 33600, 149.001
 33660, 152.564
 33720, 148.761
 33780, 145.689
 33840, 145.933
 33900, 149.119
 33960, 153.127
 34020, 153.633
 34080, 153.721
 34140, 156.188
 34200, 153.045
 34260, 151.794
 34320, 141.747
 34380, 135.066
 34440, 137.571
 34500, 136.330
 34560, 139.347
 34620, 131.598
 34680, 132.372
 34740, 128.193
 34800, 123.072
 34860, 120.962
 34920, 122.139
 34980, 121.982
 35040, 122.502
 35100, 123.943
 35160, 125.036
 35220, 119.169
 35280, 113.220
 35340, 115.670
 35400, 117.914
 35460, 121.789
 35520, 118.664
 35580, 117.337
 35640, -9999.000
 35700, 115.677
 35760, 116.209
 35820, 118.583
 35880, 117.197
 35940, 113.274
 36000, 110.803
 36060, 104.642
 36120, 107.289
 36180, 113.420
 36240, 118.983
 36300, 120.175
 36360, 126.648
 36420, 136.436
 36480, 145.447
 36540, 152.629
 36600, 154.775
 36660, 154.170
 36720, 158.789
 36780, 162.783
 36840, 160.240
 36900, 162.281
 36960, 162.124
 37020, 160.898
 37080, 166.268
 37140, 167.958
 37200, 169.846
 37260, 157.000
 37320, 148.121
 37380, 148.054
 37440, 147.592
 37500, -9999.000
 37560, 142.420
 37620, 134.251
 37680, 131.054
 37740, 134.617
 37800, 138.554
 37860, 143.713
 37920, 138.091
 37980, 135.490
 38040, 137.375
 38100, 135.716
 38160, 134.688
 38220, 138.115
 38280, 138.854
 38340, 142.618
 38400, 149.622
 38460, 153.361
 38520, 157.720
 38580, 158.759
 38640, 158.370
 38700, 150.840
 38760, 146.364
 38820, 155.032
 38880, 155.949
 38940, 154.069
 39000, 146.944
 39060, 142.306
 39120, 146.221
 39180, 138.680
 39240, 142.107
 39300, 140.938
 39360, -9999.000
 39420, 130.634
 39480, 131.883
 39540, 128.054
 39600, 124.942
 39660, 123.976
 39720, 126.323
 39780, 124.930
 39840, 124.226
 39900, 120.388
 39960, 117.717
 40020, 113.574
 40080, 112.698
 40140, 114.930
 40200, 111.974
 40260, 106.779
 40320, 104.125
 40380, 107.145
 40440, 104.280
 40500, 102.050
 40560, 98.108
 40620, 100.636
 40680, 101.939
 40740, 99.456
 40800, 99.031
 40860, 94.464
 40920, 98.498
 40980, 98.224
 41040, 97.337
 41100, 90.811
 41160, 90.762
 41220, 103.322
 41280, 100.474
 41340, 98.369
 41400, 96.195
 41460, 95.598
 41520, 93.779
 41580, 91.299
 41640, 89.637
 41700, 87.570
 41760, 91.041
 41820, 94.607
 41880, 94.556
 41940, 90.630
 42000, 89.422
 42060, 90.869
 42120, 89.294
 42180, 85.288
 42240, 82.326
 42300, 84.987
 42360, 88.498
 42420, 86.537
 42480, 88.677
 42540, 82.683
 42600, 85.480
 42660, 89.764
 42720, 89.747
 42780, 85.693
 42840, 86.726
 42900, 88.783
 42960, 89.671
 43020, -9999.000
 43080, 96.032
 43140, 91.658
 43200, 90.677
 43260, 84.923
 43320, 78.180
 43380, 79.565
 43440, 80.697
 43500, 80.572
 43560, 78.052
 43620, 74.386
 43680, 77.335
 43740, 80.773
 43800, 80.083
 43860, 81.638
 43920, 78.115
 43980, 78.899
 44040, 81.158
 44100, 80.637
 44160, 79.566
 44220, 79.622
 44280, 75.470
 44340, 73.292
 44400, 74.168
 44460, 72.801
 44520, 74.814
 44580, 71.692
 44640, 75.655
 44700, 75.205
 44760, 77.657
 44820, 77.795
 44880, 75.273
 44940, 88.663
 45000, 87.186
 45060, 84.914
 45120, 81.287
 45180, 78.497
 45240, 81.262
 45300, 81.372
 45360, 81.873
 45420, 80.529
 45480, 83.075
 45540, 83.844
 45600, 82.094
 45660, 82.610
 45720, 81.678
 45780, 78.666
 45840, 79.593
 45900, 77.390
 45960, 78.153
 46020, 80.568
 46080, 80.207
 46140, 78.118
 46200, 77.525
 46260, 77.897
 46320, 75.591
 46380, 70.092
 46440, 71.873
 46500, 72.551
 46560, 77.027
 46620, 78.583
 46680, 76.720
 46740, -9999.000
 46800, 67.806
 46860, 82.727
 46920, 236.306
 46980, 285.266
 47040, 253.461
 47100, 226.064
 47160, 209.491
 47220, 200.653
 47280, 201.514
 47340, 194.220
 47400, 188.318
 47460, 181.763
 47520, 178.897
 47580, 179.170
 47640, 172.689
 47700, 164.518
 47760, 160.132
 47820, 155.409
 47880, 152.213
 47940, 146.578
 48000, 142.246
 48060, 141.927
 48120, 140.114
 48180, 137.988
 48240, 135.783
 48300, 130.818
 48360, 130.470
 48420, 130.133
 48480, 126.591
 48540, 126.055
 48600, 146.352
 48660, 141.540
 48720, 138.602
 48780, 135.152
 48840, 132.646
 48900, 136.545
 48960, 133.978
 49020, 127.669
 49080, 119.992
 49140, 119.440
 49200, 121.219
 49260, 122.077
 49320, 123.135
 49380, 119.179
 49440, 118.810
 49500, 130.100
 49560, 135.649
 49620, 140.112
 49680, 141.531
 49740, 137.488
 49800, 134.415
 49860, 139.300
 49920, 142.252
 49980, 140.734
 50040, 140.770
 50100, 140.998
 50160, 149.776
 50220, 158.584
 50280, 159.552
 50340, 159.696
 50400, 161.763
 50460, -9999.000
 50520, 180.653
 50580, 177.461
 50640, 176.314
 50700, 183.152
 50760, 178.851
 50820, 171.192
 50880, 173.938
 50940, 185.556
 51000, 198.247
 51060, 196.897
 51120, 195.069
 51180, 199.836
 51240, 199.202
 51300, 190.539
 51360, 200.125
 51420, 215.955
 51480, 226.778
 51540, 229.300
 51600, 226.407
 51660, 219.692
 51720, 216.024
 51780, 216.383
 51840, 207.701
 51900, 204.514
 51960, 215.998
 52020, 225.456
 52080, 227.582
 52140, 223.935
 52200, 223.771
 52260, 220.942
 52320, 212.082
 52380, 220.310
 52440, 235.229
 52500, 246.138
 52560, 249.936
 52620, 253.039
 52680, 252.338
 52740, 254.582
 52800, 250.695
 52860, 245.122
 52920, 248.304
 52980, 260.153
 53040, 269.596
 53100, 274.672
 53160, 270.413
 53220, 266.423
 53280, 264.301
 53340, 262.538
 53400, 257.787
 53460, 256.480
 53520, 254.433
 53580, 252.489
 53640, 266.759
 53700, 281.773
 53760, 282.139
 53820, 281.860
 53880, 269.653
 53940, 253.663
 54000, 248.726
 54060, 248.976
 54120, -9999.000
 54180, 225.701
 54240, 230.550
 54300, 237.366
 54360, 254.021
 54420, 263.954
 54480, 269.758
 54540, 272.859
 54600, 276.261
 54660, 274.975
 54720, 280.341
 54780, 286.934
 54840, 285.197
 54900, 278.189
 54960, 290.097
 55020, 293.335
 55080, 282.932
 55140, 280.043
 55200, 270.075
 55260, 276.299
 55320, 277.330
 55380, 282.138
 55440, 287.693
 55500, 294.060
 55560, 298.411
 55620, 307.990
 55680, 311.745
 55740, 317.611
 55800, 324.510
 55860, 336.521
 55920, 345.214
 55980, -9999.000
 56040, 320.812
 56100, 341.769
 56160, 366.287
 56220, 373.531
 56280, 388.465
 56340, 390.926
 56400, 389.271
 56460, 389.516
 56520, 396.481
 56580, 393.788
 56640, 398.930
 56700, 404.934
 56760, 410.966
 56820, 421.703
 56880, 414.001
 56940, 419.602
 57000, 437.098
 57060, 453.602
 57120, 454.844
 57180, 452.953
 57240, 459.152
 57300, 466.812
 57360, 470.122
 57420, 496.448
 57480, 519.178
 57540, 539.554
 57600, 555.361
 57660, 554.485
 57720, 566.927
 57780, 571.068
 57840, -9999.000
 57900, 471.511
 57960, 497.666
 58020, 520.107
 58080, 541.549
 58140, 566.292
 58200, 584.529
 58260, 595.011
 58320, 601.865
 58380, 607.883
 58440, 607.931
 58500, 624.928
 58560, 664.631
 58620, 677.769
 58680, 667.889
 58740, 699.594
 58800, 704.474
 58860, 699.123
 58920, 715.722
 58980, 741.471
 59040, 749.614
 59100, 738.394
 59160, 723.038
 59220, 717.976
 59280, 712.272
 59340, 714.590
 59400, 713.075
 59460, 701.886
 59520, 721.597
 59580, 755.153
 59640, 739.072
 59700, 691.448
 59760, 725.605
 59820, 789.910
 59880, 833.572
 59940, 841.965
 60000, 845.025
 60060, 866.852
 60120, 888.704
 60180, 898.272
 60240, 928.932
 60300, 961.242
 60360, 956.582
 60420, 960.395
 60480, 1015.689
 60540, 1046.905
 60600, 962.070
 60660, 1007.407
 60720, 1048.687
 60780, 1018.248
 60840, 989.803
 60900, 1018.935
 60960, 1053.284
 61020, 1073.576
 61080, 1067.484
 61140, 1103.025
 61200, 1067.274
 61260, 1051.002
 61320, 1069.230
 61380, 1089.997
 61440, 1091.485
 61500, -9999.000
 61560, 850.409
 61620, 918.430
 61680, 987.682
 61740, 1033.367
 61800, 1062.981
 61860, 1098.509
 61920, 1145.549
 61980, 1217.600
 62040, 1263.728
 62100, 1287.092
 62160, 1303.462
 62220, 1295.022
 62280, 1287.253
 62340, 1294.401
 62400, 1281.303
 62460, 1307.917
 62520, 1299.649
 62580, 1295.941
 62640, 1303.581
 62700, 1301.924
 62760, 1304.796
 62820, 1289.172
 62880, 1321.386
 62940, 1314.626
 63000, 1302.363
 63060, 1320.186
 63120, 1285.103
 63180, 1284.118
 63240, 1287.269
 63300, 1330.040
 63360, 1294.842
 63420, -9999.000
 63480, -9999.000
 63540, -9999.000
 63600, -9999.000
 63660, -9999.000
 63720, -9999.000
 63780, -9999.000
 63840, -9999.000
 63900, -9999.000
 63960, -9999.000
 64020, -9999.000
 64080, -9999.000
 64140, -9999.000
 64200, -9999.000
 64260, -9999.000
 64320, -9999.000
 64380, -9999.000
 64440, -9999.000
 64500, -9999.000
 64560, -9999.000
 64620, -9999.000
 64680, -9999.000
 64740, -9999.000
 64800, -9999.000
 64860, -9999.000
 64920, -9999.000
 64980, -9999.000
 65040, -9999.000
 65100, -9999.000
 65160, -9999.000
 65220, -9999.000
 65280, -9999.000
 65340, -9999.000
 65400, -9999.000
 65460, -9999.000
 65520, -9999.000
 65580, -9999.000
 65640, -9999.000
 65700, -9999.000
 65760, -9999.000
 65820, -9999.000
 65880, -9999.000
 65940, -9999.000
 66000, -9999.000
 66060, -9999.000
 66120, -9999.000
 66180, -9999.000
 66240, -9999.000
 66300, -9999.000
 66360, -9999.000
 66420, -9999.000
 66480, -9999.000
 66540, -9999.000
 66600, -9999.000
 66660, -9999.000
 66720, -9999.000
 66780, -9999.000
 66840, -9999.000
 66900, -9999.000
 66960, -9999.000
 67020, -9999.000
 67080, -9999.000
 67140, -9999.000
 67200, -9999.000
 67260, -9999.000
 67320, -9999.000
 67380, -9999.000
 67440, -9999.000
 67500, -9999.000
 67560, -9999.000
 67620, -9999.000
 67680, -9999.000
 67740, -9999.000
 67800, -9999.000
 67860, -9999.000
 67920, -9999.000
 67980, -9999.000
 68040, -9999.000
 68100, -9999.000
 68160, -9999.000
 68220, -9999.000
 68280, -9999.000
 68340, -9999.000
 68400, -9999.000
 68460, -9999.000
 68520, -9999.000
 68580, -9999.000
 68640, -9999.000
 68700, -9999.000
 68760, -9999.000
 68820, -9999.000
 68880, -9999.000
 68940, -9999.000
 69000, -9999.000
 69060, -9999.000
 69120, -9999.000
 69180, -9999.000
 69240, -9999.000
 69300, -9999.000
 69360, -9999.000
 69420, -9999.000
 69480, -9999.000
 69540, -9999.000
 69600, -9999.000
 69660, -9999.000
 69720, -9999.000
 69780, -9999.000
 69840, -9999.000
 69900, -9999.000
 69960, -9999.000
 70020, -9999.000
 70080, -9999.000
 70140, -9999.000
 70200, -9999.000
 70260, -9999.000
 70320, -9999.000
 70380, -9999.000
 70440, -9999.000
 70500, -9999.000
 70560, -9999.000
 70620, -9999.000
 70680, -9999.000
 70740, -9999.000
 70800, -9999.000
 70860, -9999.000
 70920, -9999.000
 70980, -9999.000
 71040, -9999.000
 71100, -9999.000
 71160, -9999.000
 71220, -9999.000
 71280, -9999.000
 71340, -9999.000
 71400, -9999.000
 71460, -9999.000
 71520, -9999.000
 71580, -9999.000
 71640, -9999.000
 71700, -9999.000
 71760, -9999.000
 71820, -9999.000
 71880, -9999.000
 71940, -9999.000
 72000, -9999.000
 72060, -9999.000
 72120, -9999.000
 72180, -9999.000
 72240, -9999.000
 72300, -9999.000
 72360, -9999.000
 72420, -9999.000
 72480, -9999.000
 72540, -9999.000
 72600, -9999.000
 72660, -9999.000
 72720, -9999.000
 72780, -9999.000
 72840, -9999.000
 72900, -9999.000
 72960, -9999.000
 73020, -9999.000
 73080, -9999.000
 73140, -9999.000
 73200, -9999.000
 73260, -9999.000
 73320, -9999.000
 73380, -9999.000
 73440, -9999.000
 73500, -9999.000
 73560, -9999.000
 73620, -9999.000
 73680, -9999.000
 73740, -9999.000
 73800, -9999.000
 73860, -9999.000
 73920, -9999.000
 73980, -9999.000
 74040, -9999.000
 74100, -9999.000
 74160, -9999.000
 74220, -9999.000
 74280, -9999.000
 74340, -9999.000
 74400, -9999.000
 74460, -9999.000
 74520, -9999.000
 74580, -9999.000
 74640, -9999.000
 74700, -9999.000
 74760, -9999.000
 74820, -9999.000
 74880, -9999.000
 74940, -9999.000
 75000, -9999.000
 75060, -9999.000
 75120, -9999.000
 75180, -9999.000
 75240, -9999.000
 75300, -9999.000
 75360, -9999.000
 75420, -9999.000
 75480, -9999.000
 75540, -9999.000
 75600, -9999.000
 75660, -9999.000
 75720, -9999.000
 75780, -9999.000
 75840, -9999.000
 75900, -9999.000
 75960, -9999.000
 76020, -9999.000
 76080, -9999.000
 76140, -9999.000
 76200, -9999.000
 76260, -9999.000
 76320, -9999.000
 76380, -9999.000
 76440, -9999.000
 76500, -9999.000
 76560, -9999.000
 76620, -9999.000
 76680, -9999.000
 76740, -9999.000
 76800, -9999.000
 76860, -9999.000
 76920, -9999.000
 76980, -9999.000
 77040, -9999.000
 77100, -9999.000
 77160, -9999.000
 77220, -9999.000
 77280, -9999.000
 77340, -9999.000
 77400, -9999.000
 77460, -9999.000
 77520, -9999.000
 77580, -9999.000
 77640, -9999.000
 77700, -9999.000
 77760, -9999.000
 77820, -9999.000
 77880, -9999.000
 77940, -9999.000
 78000, -9999.000
 78060, -9999.000
 78120, -9999.000
 78180, -9999.000
 78240, -9999.000
 78300, -9999.000
 78360, -9999.000
 78420, -9999.000
 78480, -9999.000
 78540, -9999.000
 78600, -9999.000
 78660, -9999.000
 78720, -9999.000
 78780, -9999.000
 78840, -9999.000
 78900, -9999.000
 78960, -9999.000
 79020, -9999.000
 79080, -9999.000
 79140, -9999.000
 79200, -9999.000
 79260, -9999.000
 79320, -9999.000
 79380, -9999.000
 79440, -9999.000
 79500, -9999.000
 79560, -9999.000
 79620, -9999.000
 79680, -9999.000
 79740, -9999.000
 79800, -9999.000
 79860, -9999.000
 79920, -9999.000
 79980, -9999.000
 80040, -9999.000
 80100, -9999.000
 80160, -9999.000
 80220, -9999.000
 80280, -9999.000
 80340, -9999.000
 80400, -9999.000
 80460, -9999.000
 80520, -9999.000
 80580, -9999.000
 80640, -9999.000
 80700, -9999.000
 80760, -9999.000
 80820, -9999.000
 80880, -9999.000
 80940, -9999.000
 81000, -9999.000
 81060, -9999.000
 81120, -9999.000
 81180, -9999.000
 81240, -9999.000
 81300, -9999.000
 81360, -9999.000
 81420, -9999.000
 81480, -9999.000
 81540, -9999.000
 81600, -9999.000
 81660, -9999.000
 81720, -9999.000
 81780, -9999.000
 81840, -9999.000
 81900, -9999.000
 81960, -9999.000
 82020, -9999.000
 82080, -9999.000
 82140, -9999.000
 82200, -9999.000
 82260, -9999.000
 82320, -9999.000
 82380, -9999.000
 82440, -9999.000
 82500, -9999.000
 82560, -9999.000
 82620, -9999.000
 82680, -9999.000
 82740, -9999.000
 82800, -9999.000
 82860, -9999.000
 82920, -9999.000
 82980, -9999.000
 83040, -9999.000
 83100, -9999.000
 83160, -9999.000
 83220, -9999.000
 83280, -9999.000
 83340, -9999.000
 83400, -9999.000
 83460, -9999.000
 83520, -9999.000
 83580, -9999.000
 83640, -9999.000
 83700, -9999.000
 83760, -9999.000
 83820, -9999.000
 83880, -9999.000
 83940, -9999.000
 84000, -9999.000
 84060, -9999.000
 84120, -9999.000
 84180, -9999.000
 84240, -9999.000
 84300, -9999.000
 84360, -9999.000
 84420, -9999.000
 84480, -9999.000
 84540, -9999.000
 84600, -9999.000
 84660, -9999.000
 84720, -9999.000
 84780, -9999.000
 84840, -9999.000
 84900, -9999.000
 84960, -9999.000
 85020, -9999.000
 85080, -9999.000
 85140, -9999.000
 85200, -9999.000
 85260, -9999.000
 85320, -9999.000
 85380, -9999.000
 85440, -9999.000
 85500, -9999.000
 85560, -9999.000
 85620, -9999.000
 85680, -9999.000
 85740, -9999.000
 85800, -9999.000
 85860, -9999.000
 85920, -9999.000
 85980, -9999.000
 86040, -9999.000
 86100, -9999.000
 86160, -9999.000
 86220, -9999.000
 86280, -9999.000
 86340, -9999.000
