33, 1001
Michael A Robinson, Chris Jernigan, Subi Thakali
NOAA ESRL Chemical Sciences Laboratory and CIRES, U. of Colorado
NOAA Iodide CIMS Instrument
USOS
1, 1
2024, 08, 01, 2024, 08, 02
1
starttime_UTC, seconds_past_midnight, seconds_of_day_since_00:00:00_UTC
1
1
-9999
HNO2_NOAACIMS, pptv, Gas_HNO2_InSitu_S_AVMR, 
0
18
PI_CONTACT_INFO: 325 Broadway, R/CSD 7, Boulder, Colorado 80305; michael.a.robinson@noaa.gov; chris.jernigan@noaa.gov;
PLATFORM: NOAA CSL Mobile Lab
LOCATION: SLC, Utah
ASSOCIATED_DATA: 1Hz data also available on request.
INSTRUMENT_INFO: NOAA I- ToF CIMS
DATA_INFO: All data in parts per trillion by volume (pptv). 1 Hz data is available upon request.
UNCERTAINTY: TBD
ULOD_FLAG: -7777
ULOD_VALUE: N/A
LLOD_FLAG: -8888
LLOD_VALUE: N/A
DM_CONTACT_INFO: Nathan Howard; nathan.h.howard@noaa.gov
PROJECT_INFO: USOS, summer 2024. https://csl.noaa.gov/groups/csl7/measurements/2024usos/
STIPULATIONS_ON_USE: Users are strongly encouraged to contact the PI for proper data usage.
OTHER_COMMENTS: 
REVISION: RA
RA: Preliminary Data; For in-field use only
starttime_UTC, HNO2_NOAACIMS
     0, 16.191
    60, 22.398
   120, 22.358
   180, 28.738
   240, 21.940
   300, 22.627
   360, 25.159
   420, 28.599
   480, 21.652
   540, -9999.000
   600, 14.862
   660, 17.974
   720,  7.384
   780, 14.499
   840, 13.923
   900, 23.128
   960, 34.930
  1020, 35.960
  1080, 24.222
  1140, 27.402
  1200, 23.574
  1260, 24.037
  1320, 26.831
  1380, 25.510
  1440, 24.491
  1500, 24.000
  1560, 20.921
  1620, 24.134
  1680, 25.710
  1740, 25.953
  1800, 33.761
  1860, 32.866
  1920, 25.066
  1980, 31.792
  2040, 25.949
  2100, 34.424
  2160, 41.927
  2220, 23.817
  2280, 29.182
  2340, 30.882
  2400, -9999.000
  2460, 17.794
  2520, 16.508
  2580, 18.993
  2640, 27.189
  2700, 33.682
  2760, 46.270
  2820, 42.188
  2880, 26.729
  2940, 35.390
  3000, 29.702
  3060, 23.260
  3120, 24.811
  3180, 37.582
  3240, 42.555
  3300, 38.153
  3360, 31.630
  3420, 32.058
  3480, 51.634
  3540, 56.667
  3600, 41.042
  3660, 28.385
  3720, 20.777
  3780,  8.863
  3840, 16.056
  3900, 21.289
  3960, 21.442
  4020, 27.309
  4080, 36.671
  4140, 32.841
  4200, 36.089
  4260, 28.507
  4320, 34.880
  4380, 30.809
  4440, 31.135
  4500, 33.302
  4560, 39.125
  4620, 41.077
  4680, 33.196
  4740, 32.910
  4800, 42.508
  4860, 36.909
  4920, 34.904
  4980, 26.434
  5040, 37.455
  5100, 41.101
  5160, 24.487
  5220, 35.513
  5280, 28.238
  5340, 43.207
  5400, 41.175
  5460, 37.936
  5520, 43.659
  5580, 34.907
  5640, 32.207
  5700, 48.654
  5760, 49.463
  5820, 44.168
  5880, 58.754
  5940, 77.530
  6000, 61.363
  6060, 28.395
  6120, 85.148
  6180, 66.496
  6240, 52.249
  6300, 45.292
  6360, 66.646
  6420, 50.524
  6480, 53.593
  6540, 68.767
  6600, 62.734
  6660, 59.707
  6720, 47.885
  6780, 42.996
  6840, 49.244
  6900, 67.083
  6960, 61.798
  7020, 45.507
  7080, 62.001
  7140, 54.133
  7200, 54.117
  7260, 87.650
  7320, 96.870
  7380, 100.247
  7440, 79.414
  7500, 107.558
  7560, 76.972
  7620, 54.962
  7680, 67.505
  7740, 65.200
  7800, 63.944
  7860, 58.020
  7920, 67.499
  7980, 80.261
  8040, 77.143
  8100, 66.021
  8160, 56.807
  8220, 49.883
  8280, 62.057
  8340, 64.710
  8400, 75.643
  8460, 102.588
  8520, 100.611
  8580, 103.560
  8640, 85.909
  8700, 105.336
  8760, 110.937
  8820, 92.978
  8880, 100.906
  8940, 113.313
  9000, 115.106
  9060, 112.799
  9120, 130.725
  9180, 116.675
  9240, 119.522
  9300, 116.964
  9360, 94.975
  9420, 116.067
  9480, 121.036
  9540, 156.250
  9600, 154.972
  9660, 166.560
  9720, 191.777
  9780, -9999.000
  9840, 183.615
  9900, 178.787
  9960, 129.452
 10020, 110.946
 10080, 104.235
 10140, 85.324
 10200, 98.242
 10260, 116.980
 10320, 109.983
 10380, 116.125
 10440, 106.438
 10500, 126.794
 10560, 149.825
 10620, 131.840
 10680, 126.390
 10740, 136.179
 10800, 123.216
 10860, 108.107
 10920, 93.014
 10980, 126.699
 11040, 98.367
 11100, 81.142
 11160, 82.334
 11220, 112.853
 11280, 92.760
 11340, 82.703
 11400, 93.058
 11460, 85.321
 11520, 93.031
 11580, 77.245
 11640, -9999.000
 11700, 89.044
 11760, 84.451
 11820, 70.359
 11880, 84.732
 11940, 71.648
 12000, 71.969
 12060, 91.277
 12120, 74.483
 12180, 82.364
 12240, 80.365
 12300, 85.858
 12360, 88.203
 12420, 86.006
 12480, 67.791
 12540, 80.051
 12600, 81.823
 12660, 69.830
 12720, 85.078
 12780, 115.258
 12840, 92.484
 12900, 81.172
 12960, 77.105
 13020, 104.037
 13080, 95.116
 13140, 90.307
 13200, 81.250
 13260, 74.894
 13320, 64.603
 13380, 71.156
 13440, 78.301
 13500, -9999.000
 13560, 77.708
 13620, 86.655
 13680, 65.932
 13740, 60.356
 13800, 59.181
 13860, 68.682
 13920, 76.452
 13980, 79.485
 14040, 84.902
 14100, 64.974
 14160, 61.821
 14220, 71.381
 14280, 60.999
 14340, 58.269
 14400, 62.259
 14460, 76.137
 14520, 77.765
 14580, 59.343
 14640, 69.126
 14700, 62.225
 14760, 60.463
 14820, 72.083
 14880, 75.955
 14940, 54.467
 15000, 71.955
 15060, 64.382
 15120, 72.668
 15180, 71.550
 15240, 67.357
 15300, 75.396
 15360, 60.416
 15420, 66.440
 15480, 87.283
 15540, 73.980
 15600, 73.956
 15660, 84.786
 15720, 78.268
 15780, 78.037
 15840, 92.803
 15900, 99.082
 15960, 92.883
 16020, 86.632
 16080, 93.981
 16140, 85.693
 16200, 73.755
 16260, 75.820
 16320, 88.444
 16380, 77.055
 16440, 68.516
 16500, 69.599
 16560, 66.593
 16620, 67.595
 16680, 66.870
 16740, 50.424
 16800, 54.565
 16860, 57.068
 16920, 58.284
 16980, 63.955
 17040, 73.681
 17100, 81.025
 17160, -9999.000
 17220, 91.631
 17280, 65.995
 17340, 46.309
 17400, 55.521
 17460, 49.823
 17520, 67.415
 17580, 65.735
 17640, 55.298
 17700, 63.234
 17760, 55.034
 17820, 65.076
 17880, 71.651
 17940, 72.505
 18000, 58.780
 18060, 45.355
 18120, 54.940
 18180, 60.940
 18240, 68.272
 18300, 64.441
 18360, 58.363
 18420, 39.964
 18480, 56.676
 18540, 57.818
 18600, 58.645
 18660, 53.258
 18720, 41.843
 18780, 31.251
 18840, 34.770
 18900, 35.335
 18960, 37.893
 19020, -9999.000
 19080, 29.792
 19140, 34.393
 19200, 31.866
 19260, 34.239
 19320, 36.129
 19380, 41.612
 19440, 34.397
 19500, 35.263
 19560, 34.268
 19620, 34.847
 19680, 42.022
 19740, 44.240
 19800, 39.286
 19860, 28.732
 19920, 28.983
 19980, 45.652
 20040, 51.791
 20100, 42.639
 20160, 36.205
 20220, 34.915
 20280, 44.261
 20340, 41.477
 20400, 38.651
 20460, 32.857
 20520, 38.318
 20580, 30.917
 20640, 39.250
 20700, 51.956
 20760, 57.208
 20820, 43.930
 20880, -9999.000
 20940, 55.761
 21000, 62.670
 21060, 91.751
 21120, 71.257
 21180, 71.040
 21240, 68.425
 21300, 70.832
 21360, 80.223
 21420, 79.881
 21480, 89.901
 21540, 93.338
 21600, 105.644
 21660, 106.917
 21720, 110.537
 21780, 135.390
 21840, 130.654
 21900, 116.195
 21960, 122.567
 22020, 107.685
 22080, 138.781
 22140, 132.072
 22200, 100.202
 22260, 93.259
 22320, 103.514
 22380, 142.650
 22440, 134.104
 22500, 103.105
 22560, 130.997
 22620, 130.453
 22680, 135.336
 22740, 131.560
 22800, 126.051
 22860, 121.374
 22920, 106.872
 22980, 88.957
 23040, 98.585
 23100, 94.433
 23160, 83.398
 23220, 76.921
 23280, 82.686
 23340, 70.223
 23400, 45.316
 23460, 69.545
 23520, 73.560
 23580, 65.749
 23640, 67.721
 23700, 86.951
 23760, 98.794
 23820, 82.395
 23880, 90.484
 23940, 98.969
 24000, 94.106
 24060, 76.923
 24120, 77.632
 24180, 77.741
 24240, 46.996
 24300, 58.130
 24360, 59.006
 24420, 58.747
 24480, 50.253
 24540, 63.849
 24600, 42.734
 24660, 47.983
 24720, 39.862
 24780, 30.724
 24840, 20.416
 24900, 27.548
 24960, 32.023
 25020, 18.012
 25080, 23.497
 25140, 25.662
 25200, 19.991
 25260, 29.395
 25320, 25.100
 25380, 15.968
 25440, 23.904
 25500, 26.608
 25560, 26.394
 25620, 17.323
 25680, 26.671
 25740, 21.003
 25800, 15.568
 25860, 33.377
 25920, 31.588
 25980, 18.199
 26040,  5.218
 26100, 21.411
 26160, 16.238
 26220, 11.600
 26280, 20.983
 26340,  8.640
 26400, 15.802
 26460, 23.432
 26520, 17.965
 26580, 17.160
 26640, 24.726
 26700, 19.509
 26760, 21.227
 26820, 23.915
 26880, 27.430
 26940, 24.327
 27000, 24.147
 27060, 22.271
 27120, 31.386
 27180, 46.015
 27240, 45.891
 27300, 31.873
 27360, 48.386
 27420, 41.175
 27480, 28.218
 27540, 39.285
 27600, 43.335
 27660, 33.177
 27720, 42.218
 27780, 52.546
 27840, 49.611
 27900, 43.556
 27960, 30.949
 28020, 37.144
 28080, 33.411
 28140, 44.462
 28200, 41.899
 28260, -9999.000
 28320, 57.251
 28380, 63.503
 28440, 50.505
 28500, 47.488
 28560, 40.398
 28620, 61.328
 28680, 56.164
 28740, 47.127
 28800, 64.461
 28860, 66.746
 28920, 64.677
 28980, 84.988
 29040, 76.416
 29100, 75.105
 29160, 73.449
 29220, 66.872
 29280, 61.887
 29340, 64.063
 29400, 81.117
 29460, 71.996
 29520, 69.510
 29580, 68.944
 29640, 67.038
 29700, 81.419
 29760, 77.241
 29820, 69.799
 29880, 84.452
 29940, 84.599
 30000, 88.997
 30060, 95.635
 30120, 48.927
 30180, 72.330
 30240, 83.339
 30300, 72.397
 30360, 66.415
 30420, 60.101
 30480, 59.023
 30540, 47.224
 30600, 41.357
 30660, 47.844
 30720, 44.395
 30780, 45.337
 30840, 45.856
 30900, 56.761
 30960, 65.571
 31020, 48.202
 31080, 34.139
 31140, 30.288
 31200, 30.787
 31260, 14.164
 31320, 19.338
 31380, 18.226
 31440, 15.471
 31500, 23.709
 31560, 20.056
 31620, 19.225
 31680, 13.388
 31740, 18.135
 31800, 17.772
 31860, 12.366
 31920, 16.694
 31980, -9999.000
 32040,  7.622
 32100, 17.949
 32160, 19.521
 32220, 11.817
 32280, 12.302
 32340, 14.996
 32400, 14.345
 32460, 16.967
 32520, 15.896
 32580, 16.448
 32640, 15.232
 32700, 17.693
 32760, 17.559
 32820, 19.604
 32880, 16.554
 32940, 22.967
 33000, 14.094
 33060, 20.183
 33120, 17.567
 33180, 13.586
 33240, 12.898
 33300, 17.008
 33360, 15.263
 33420, 16.096
 33480, 13.976
 33540,  5.192
 33600, 11.809
 33660, 10.112
 33720,  8.780
 33780, 10.818
 33840,  7.940
 33900,  8.699
 33960, 19.274
 34020, 16.928
 34080, 17.166
 34140, 60.043
 34200, 36.870
 34260, 37.837
 34320, 45.624
 34380, 36.574
 34440, 59.875
 34500, 50.088
 34560, 56.971
 34620, 38.176
 34680, 44.308
 34740, 75.046
 34800, 54.077
 34860, 43.233
 34920, 42.828
 34980, 53.750
 35040, 50.584
 35100, 62.044
 35160, 66.062
 35220, 43.738
 35280, 42.093
 35340, 59.786
 35400, 54.933
 35460, 69.532
 35520, 55.700
 35580, 61.411
 35640, -9999.000
 35700, 46.413
 35760, 66.105
 35820, 68.419
 35880, 61.717
 35940, 66.926
 36000, 52.911
 36060, 18.481
 36120, 17.919
 36180, 11.659
 36240, 10.825
 36300, 21.825
 36360, 18.855
 36420,  7.292
 36480, 12.302
 36540, 16.484
 36600, 15.025
 36660, 18.817
 36720, 27.814
 36780, 25.348
 36840, 23.821
 36900, 19.548
 36960, 25.693
 37020, 13.684
 37080, 18.697
 37140, 27.368
 37200, 42.223
 37260, 49.469
 37320, 33.882
 37380, 25.954
 37440, 18.792
 37500, -9999.000
 37560, 20.567
 37620, 26.027
 37680, 22.557
 37740, 13.924
 37800, 15.181
 37860, 33.310
 37920, 20.303
 37980, 25.513
 38040, 25.924
 38100, 14.203
 38160, 18.177
 38220, 12.419
 38280, 16.010
 38340, 12.409
 38400, 13.798
 38460,  6.097
 38520,  6.442
 38580, 22.265
 38640, 24.894
 38700, 36.367
 38760, 33.686
 38820, 38.019
 38880, 46.895
 38940, 68.550
 39000, 64.897
 39060, 72.571
 39120, 92.174
 39180, 72.185
 39240, 97.134
 39300, 110.035
 39360, -9999.000
 39420, 63.604
 39480, 80.703
 39540, 79.235
 39600, 84.912
 39660, 105.244
 39720, 110.619
 39780, 89.956
 39840, 112.983
 39900, 116.729
 39960, 119.759
 40020, 129.107
 40080, 134.089
 40140, 131.074
 40200, 151.420
 40260, 172.019
 40320, 163.717
 40380, 155.858
 40440, 167.170
 40500, 167.982
 40560, 187.019
 40620, 182.411
 40680, 187.682
 40740, 198.363
 40800, 202.521
 40860, 215.054
 40920, 262.565
 40980, 249.697
 41040, 264.215
 41100, 266.235
 41160, 263.420
 41220, 272.165
 41280, 291.871
 41340, 300.961
 41400, 293.388
 41460, 282.911
 41520, 289.731
 41580, 273.611
 41640, 278.544
 41700, 308.137
 41760, 301.270
 41820, 297.330
 41880, 300.369
 41940, 299.416
 42000, 306.465
 42060, 297.934
 42120, 307.404
 42180, 311.119
 42240, 340.627
 42300, 315.266
 42360, 330.311
 42420, 356.780
 42480, 353.709
 42540, 353.359
 42600, 350.641
 42660, 349.470
 42720, 359.309
 42780, 377.796
 42840, 391.249
 42900, 392.874
 42960, 398.761
 43020, -9999.000
 43080, 388.976
 43140, 387.774
 43200, 430.456
 43260, 430.525
 43320, 420.781
 43380, 444.593
 43440, 445.392
 43500, 427.631
 43560, 414.704
 43620, 418.391
 43680, 323.879
 43740, 333.173
 43800, 383.111
 43860, 371.404
 43920, 350.836
 43980, 384.497
 44040, 376.318
 44100, 399.441
 44160, 408.746
 44220, 387.751
 44280, 393.198
 44340, 416.251
 44400, 418.184
 44460, 389.078
 44520, 388.333
 44580, 430.356
 44640, 460.590
 44700, 412.983
 44760, 433.556
 44820, 440.430
 44880, 418.382
 44940, 459.533
 45000, 481.658
 45060, 513.462
 45120, 513.389
 45180, 499.593
 45240, 523.666
 45300, 499.107
 45360, 506.343
 45420, 515.151
 45480, 483.374
 45540, 496.487
 45600, 479.361
 45660, 499.532
 45720, 499.145
 45780, 458.600
 45840, 461.243
 45900, 489.823
 45960, 497.989
 46020, 496.660
 46080, 465.585
 46140, 475.440
 46200, 477.550
 46260, 451.374
 46320, 443.311
 46380, 454.982
 46440, 437.458
 46500, 441.358
 46560, 417.091
 46620, 506.829
 46680, 487.552
 46740, -9999.000
 46800, 530.076
 46860, 549.745
 46920, 558.022
 46980, 494.790
 47040, 470.910
 47100, 440.769
 47160, 411.549
 47220, 399.444
 47280, 433.803
 47340, 390.155
 47400, 391.414
 47460, 413.132
 47520, 395.364
 47580, 412.346
 47640, 449.278
 47700, 457.222
 47760, 441.087
 47820, 431.864
 47880, 440.303
 47940, 423.005
 48000, 377.451
 48060, 366.354
 48120, 432.014
 48180, 400.752
 48240, 379.367
 48300, 410.813
 48360, 403.133
 48420, 371.348
 48480, 375.731
 48540, 410.962
 48600, 476.517
 48660, 413.006
 48720, 387.729
 48780, 419.361
 48840, 421.014
 48900, 411.810
 48960, 396.223
 49020, 405.415
 49080, 397.241
 49140, 351.317
 49200, 370.079
 49260, 399.685
 49320, 377.951
 49380, 394.091
 49440, 409.325
 49500, 398.401
 49560, 417.434
 49620, 388.636
 49680, 385.217
 49740, 415.787
 49800, 437.443
 49860, 358.701
 49920, 338.815
 49980, 386.907
 50040, 351.739
 50100, 340.281
 50160, 308.303
 50220, 264.606
 50280, 306.564
 50340, 309.631
 50400, 277.319
 50460, -9999.000
 50520, 323.265
 50580, 289.895
 50640, 283.287
 50700, 319.569
 50760, 266.290
 50820, 253.796
 50880, 247.021
 50940, 205.414
 51000, 253.153
 51060, 271.384
 51120, 211.131
 51180, 227.389
 51240, 216.452
 51300, 231.618
 51360, 242.060
 51420, 214.345
 51480, 243.997
 51540, 243.611
 51600, 237.755
 51660, 261.739
 51720, 228.696
 51780, 235.357
 51840, 243.925
 51900, 202.220
 51960, 218.982
 52020, 206.536
 52080, 218.934
 52140, 204.479
 52200, 223.488
 52260, 241.540
 52320, 206.237
 52380, 190.109
 52440, 162.571
 52500, 171.889
 52560, 172.410
 52620, 182.604
 52680, 162.157
 52740, 184.264
 52800, 164.454
 52860, 175.997
 52920, 172.414
 52980, 155.162
 53040, 157.966
 53100, 174.633
 53160, 163.477
 53220, 177.962
 53280, 159.488
 53340, 166.402
 53400, 166.681
 53460, 166.520
 53520, 173.938
 53580, 137.997
 53640, 132.522
 53700, 119.845
 53760, 128.656
 53820, 149.908
 53880, 163.228
 53940, 157.699
 54000, 129.309
 54060, 130.717
 54120, -9999.000
 54180, 117.033
 54240, 129.561
 54300, 121.526
 54360, 127.591
 54420, 127.682
 54480, 114.475
 54540, 129.792
 54600, 120.075
 54660, 122.508
 54720, 114.427
 54780, 125.917
 54840, 121.861
 54900, 196.053
 54960, 407.191
 55020, 438.037
 55080, 140.831
 55140, 271.592
 55200, 259.406
 55260, 334.991
 55320, 472.963
 55380, 172.737
 55440, 135.248
 55500, 123.908
 55560, 115.155
 55620, 119.730
 55680, 133.059
 55740, 119.631
 55800, 112.278
 55860, 100.732
 55920, 110.715
 55980, -9999.000
 56040, 112.366
 56100, 91.723
 56160, 120.611
 56220, 92.523
 56280, 98.300
 56340, 108.047
 56400, 122.014
 56460, 108.359
 56520, 115.874
 56580, 114.240
 56640, 112.470
 56700, 111.032
 56760, 109.458
 56820, 97.137
 56880, 120.040
 56940, 92.001
 57000, 99.933
 57060, 99.854
 57120, 96.241
 57180, 102.942
 57240, 101.253
 57300, 109.711
 57360, 101.200
 57420, 92.395
 57480, 94.947
 57540, 89.461
 57600, 106.445
 57660, 93.793
 57720, 92.350
 57780, 79.395
 57840, -9999.000
 57900, 95.184
 57960, 90.937
 58020, 83.854
 58080, 86.964
 58140, 84.497
 58200, 84.689
 58260, 84.470
 58320, 79.728
 58380, 80.286
 58440, 87.799
 58500, 70.572
 58560, 75.621
 58620, 86.999
 58680, 84.041
 58740, 74.765
 58800, 81.270
 58860, 78.754
 58920, 65.704
 58980, 67.880
 59040, 78.963
 59100, 90.836
 59160, 97.340
 59220, 99.257
 59280, 101.078
 59340, 104.630
 59400, 95.926
 59460, 87.973
 59520, 101.645
 59580, 96.403
 59640, 99.818
 59700, 101.310
 59760, 99.406
 59820, 80.937
 59880, 84.722
 59940, 88.341
 60000, 86.113
 60060, 78.311
 60120, 93.348
 60180, 85.685
 60240, 75.996
 60300, 80.997
 60360, 80.514
 60420, 71.949
 60480, 71.838
 60540, 76.145
 60600, 76.539
 60660, 77.814
 60720, 80.905
 60780, 84.369
 60840, 75.862
 60900, 64.205
 60960, 67.677
 61020, 75.061
 61080, 63.191
 61140, 68.403
 61200, 76.441
 61260, 75.834
 61320, 75.378
 61380, 73.936
 61440, 77.922
 61500, -9999.000
 61560, 83.896
 61620, 83.550
 61680, 81.610
 61740, 81.092
 61800, 78.515
 61860, 79.653
 61920, 78.981
 61980, 88.219
 62040, 100.526
 62100, 83.622
 62160, 69.854
 62220, 75.642
 62280, 69.667
 62340, 78.630
 62400, 67.437
 62460, 68.677
 62520, 56.536
 62580, 60.947
 62640, 41.049
 62700, 52.402
 62760, 49.859
 62820, 53.675
 62880, 58.274
 62940, 61.396
 63000, 64.990
 63060, 57.556
 63120, 74.668
 63180, 80.429
 63240, 71.577
 63300, 68.952
 63360, 99.553
 63420, -9999.000
 63480, -9999.000
 63540, -9999.000
 63600, -9999.000
 63660, -9999.000
 63720, -9999.000
 63780, -9999.000
 63840, -9999.000
 63900, -9999.000
 63960, -9999.000
 64020, -9999.000
 64080, -9999.000
 64140, -9999.000
 64200, -9999.000
 64260, -9999.000
 64320, -9999.000
 64380, -9999.000
 64440, -9999.000
 64500, -9999.000
 64560, -9999.000
 64620, -9999.000
 64680, -9999.000
 64740, -9999.000
 64800, -9999.000
 64860, -9999.000
 64920, -9999.000
 64980, -9999.000
 65040, -9999.000
 65100, -9999.000
 65160, -9999.000
 65220, -9999.000
 65280, -9999.000
 65340, -9999.000
 65400, -9999.000
 65460, -9999.000
 65520, -9999.000
 65580, -9999.000
 65640, -9999.000
 65700, -9999.000
 65760, -9999.000
 65820, -9999.000
 65880, -9999.000
 65940, -9999.000
 66000, -9999.000
 66060, -9999.000
 66120, -9999.000
 66180, -9999.000
 66240, -9999.000
 66300, -9999.000
 66360, -9999.000
 66420, -9999.000
 66480, -9999.000
 66540, -9999.000
 66600, -9999.000
 66660, -9999.000
 66720, -9999.000
 66780, -9999.000
 66840, -9999.000
 66900, -9999.000
 66960, -9999.000
 67020, -9999.000
 67080, -9999.000
 67140, -9999.000
 67200, -9999.000
 67260, -9999.000
 67320, -9999.000
 67380, -9999.000
 67440, -9999.000
 67500, -9999.000
 67560, -9999.000
 67620, -9999.000
 67680, -9999.000
 67740, -9999.000
 67800, -9999.000
 67860, -9999.000
 67920, -9999.000
 67980, -9999.000
 68040, -9999.000
 68100, -9999.000
 68160, -9999.000
 68220, -9999.000
 68280, -9999.000
 68340, -9999.000
 68400, -9999.000
 68460, -9999.000
 68520, -9999.000
 68580, -9999.000
 68640, -9999.000
 68700, -9999.000
 68760, -9999.000
 68820, -9999.000
 68880, -9999.000
 68940, -9999.000
 69000, -9999.000
 69060, -9999.000
 69120, -9999.000
 69180, -9999.000
 69240, -9999.000
 69300, -9999.000
 69360, -9999.000
 69420, -9999.000
 69480, -9999.000
 69540, -9999.000
 69600, -9999.000
 69660, -9999.000
 69720, -9999.000
 69780, -9999.000
 69840, -9999.000
 69900, -9999.000
 69960, -9999.000
 70020, -9999.000
 70080, -9999.000
 70140, -9999.000
 70200, -9999.000
 70260, -9999.000
 70320, -9999.000
 70380, -9999.000
 70440, -9999.000
 70500, -9999.000
 70560, -9999.000
 70620, -9999.000
 70680, -9999.000
 70740, -9999.000
 70800, -9999.000
 70860, -9999.000
 70920, -9999.000
 70980, -9999.000
 71040, -9999.000
 71100, -9999.000
 71160, -9999.000
 71220, -9999.000
 71280, -9999.000
 71340, -9999.000
 71400, -9999.000
 71460, -9999.000
 71520, -9999.000
 71580, -9999.000
 71640, -9999.000
 71700, -9999.000
 71760, -9999.000
 71820, -9999.000
 71880, -9999.000
 71940, -9999.000
 72000, -9999.000
 72060, -9999.000
 72120, -9999.000
 72180, -9999.000
 72240, -9999.000
 72300, -9999.000
 72360, -9999.000
 72420, -9999.000
 72480, -9999.000
 72540, -9999.000
 72600, -9999.000
 72660, -9999.000
 72720, -9999.000
 72780, -9999.000
 72840, -9999.000
 72900, -9999.000
 72960, -9999.000
 73020, -9999.000
 73080, -9999.000
 73140, -9999.000
 73200, -9999.000
 73260, -9999.000
 73320, -9999.000
 73380, -9999.000
 73440, -9999.000
 73500, -9999.000
 73560, -9999.000
 73620, -9999.000
 73680, -9999.000
 73740, -9999.000
 73800, -9999.000
 73860, -9999.000
 73920, -9999.000
 73980, -9999.000
 74040, -9999.000
 74100, -9999.000
 74160, -9999.000
 74220, -9999.000
 74280, -9999.000
 74340, -9999.000
 74400, -9999.000
 74460, -9999.000
 74520, -9999.000
 74580, -9999.000
 74640, -9999.000
 74700, -9999.000
 74760, -9999.000
 74820, -9999.000
 74880, -9999.000
 74940, -9999.000
 75000, -9999.000
 75060, -9999.000
 75120, -9999.000
 75180, -9999.000
 75240, -9999.000
 75300, -9999.000
 75360, -9999.000
 75420, -9999.000
 75480, -9999.000
 75540, -9999.000
 75600, -9999.000
 75660, -9999.000
 75720, -9999.000
 75780, -9999.000
 75840, -9999.000
 75900, -9999.000
 75960, -9999.000
 76020, -9999.000
 76080, -9999.000
 76140, -9999.000
 76200, -9999.000
 76260, -9999.000
 76320, -9999.000
 76380, -9999.000
 76440, -9999.000
 76500, -9999.000
 76560, -9999.000
 76620, -9999.000
 76680, -9999.000
 76740, -9999.000
 76800, -9999.000
 76860, -9999.000
 76920, -9999.000
 76980, -9999.000
 77040, -9999.000
 77100, -9999.000
 77160, -9999.000
 77220, -9999.000
 77280, -9999.000
 77340, -9999.000
 77400, -9999.000
 77460, -9999.000
 77520, -9999.000
 77580, -9999.000
 77640, -9999.000
 77700, -9999.000
 77760, -9999.000
 77820, -9999.000
 77880, -9999.000
 77940, -9999.000
 78000, -9999.000
 78060, -9999.000
 78120, -9999.000
 78180, -9999.000
 78240, -9999.000
 78300, -9999.000
 78360, -9999.000
 78420, -9999.000
 78480, -9999.000
 78540, -9999.000
 78600, -9999.000
 78660, -9999.000
 78720, -9999.000
 78780, -9999.000
 78840, -9999.000
 78900, -9999.000
 78960, -9999.000
 79020, -9999.000
 79080, -9999.000
 79140, -9999.000
 79200, -9999.000
 79260, -9999.000
 79320, -9999.000
 79380, -9999.000
 79440, -9999.000
 79500, -9999.000
 79560, -9999.000
 79620, -9999.000
 79680, -9999.000
 79740, -9999.000
 79800, -9999.000
 79860, -9999.000
 79920, -9999.000
 79980, -9999.000
 80040, -9999.000
 80100, -9999.000
 80160, -9999.000
 80220, -9999.000
 80280, -9999.000
 80340, -9999.000
 80400, -9999.000
 80460, -9999.000
 80520, -9999.000
 80580, -9999.000
 80640, -9999.000
 80700, -9999.000
 80760, -9999.000
 80820, -9999.000
 80880, -9999.000
 80940, -9999.000
 81000, -9999.000
 81060, -9999.000
 81120, -9999.000
 81180, -9999.000
 81240, -9999.000
 81300, -9999.000
 81360, -9999.000
 81420, -9999.000
 81480, -9999.000
 81540, -9999.000
 81600, -9999.000
 81660, -9999.000
 81720, -9999.000
 81780, -9999.000
 81840, -9999.000
 81900, -9999.000
 81960, -9999.000
 82020, -9999.000
 82080, -9999.000
 82140, -9999.000
 82200, -9999.000
 82260, -9999.000
 82320, -9999.000
 82380, -9999.000
 82440, -9999.000
 82500, -9999.000
 82560, -9999.000
 82620, -9999.000
 82680, -9999.000
 82740, -9999.000
 82800, -9999.000
 82860, -9999.000
 82920, -9999.000
 82980, -9999.000
 83040, -9999.000
 83100, -9999.000
 83160, -9999.000
 83220, -9999.000
 83280, -9999.000
 83340, -9999.000
 83400, -9999.000
 83460, -9999.000
 83520, -9999.000
 83580, -9999.000
 83640, -9999.000
 83700, -9999.000
 83760, -9999.000
 83820, -9999.000
 83880, -9999.000
 83940, -9999.000
 84000, -9999.000
 84060, -9999.000
 84120, -9999.000
 84180, -9999.000
 84240, -9999.000
 84300, -9999.000
 84360, -9999.000
 84420, -9999.000
 84480, -9999.000
 84540, -9999.000
 84600, -9999.000
 84660, -9999.000
 84720, -9999.000
 84780, -9999.000
 84840, -9999.000
 84900, -9999.000
 84960, -9999.000
 85020, -9999.000
 85080, -9999.000
 85140, -9999.000
 85200, -9999.000
 85260, -9999.000
 85320, -9999.000
 85380, -9999.000
 85440, -9999.000
 85500, -9999.000
 85560, -9999.000
 85620, -9999.000
 85680, -9999.000
 85740, -9999.000
 85800, -9999.000
 85860, -9999.000
 85920, -9999.000
 85980, -9999.000
 86040, -9999.000
 86100, -9999.000
 86160, -9999.000
 86220, -9999.000
 86280, -9999.000
 86340, -9999.000
