33, 1001
Michael A Robinson, Chris Jernigan, Subi Thakali
NOAA ESRL Chemical Sciences Laboratory and CIRES, U. of Colorado
NOAA Iodide CIMS Instrument
USOS
1, 1
2024, 07, 24, 2024, 07, 26
1
starttime_UTC, seconds_past_midnight, seconds_of_day_since_00:00:00_UTC
1
1
-9999
HNO2_NOAACIMS, pptv, Gas_HNO2_InSitu_S_AVMR, 
0
18
PI_CONTACT_INFO: 325 Broadway, R/CSD 7, Boulder, Colorado 80305; michael.a.robinson@noaa.gov; chris.jernigan@noaa.gov;
PLATFORM: NOAA CSL Mobile Lab
LOCATION: SLC, Utah
ASSOCIATED_DATA: 1Hz data also available on request.
INSTRUMENT_INFO: NOAA I- ToF CIMS
DATA_INFO: All data in parts per trillion by volume (pptv). 1 Hz data is available upon request.
UNCERTAINTY: TBD
ULOD_FLAG: -7777
ULOD_VALUE: N/A
LLOD_FLAG: -8888
LLOD_VALUE: N/A
DM_CONTACT_INFO: Nathan Howard; nathan.h.howard@noaa.gov
PROJECT_INFO: USOS, summer 2024. https://csl.noaa.gov/groups/csl7/measurements/2024usos/
STIPULATIONS_ON_USE: Users are strongly encouraged to contact the PI for proper data usage.
OTHER_COMMENTS: 
REVISION: RA
RA: Preliminary Data; For in-field use only
starttime_UTC, HNO2_NOAACIMS
     0,  9.567
    60,  8.977
   120,  1.226
   180,  0.572
   240,  1.820
   300,  0.839
   360, -0.336
   420, -0.960
   480,  1.374
   540, -9999.000
   600, -0.714
   660,  3.361
   720,  6.330
   780,  9.459
   840,  7.885
   900,  1.459
   960,  2.809
  1020,  3.335
  1080,  6.071
  1140,  8.623
  1200,  5.781
  1260,  2.616
  1320,  0.951
  1380,  0.173
  1440,  2.925
  1500,  6.890
  1560,  3.901
  1620,  5.556
  1680,  0.635
  1740,  9.849
  1800,  3.217
  1860,  2.617
  1920, -0.332
  1980,  3.543
  2040,  7.697
  2100,  8.100
  2160,  8.713
  2220,  5.953
  2280,  4.798
  2340,  5.572
  2400, -9999.000
  2460,  8.899
  2520, 10.541
  2580,  8.977
  2640,  6.067
  2700,  9.215
  2760,  7.456
  2820,  5.016
  2880,  5.189
  2940,  4.543
  3000,  8.331
  3060,  9.447
  3120,  7.472
  3180,  7.921
  3240,  3.798
  3300,  4.190
  3360,  4.773
  3420,  7.328
  3480,  9.037
  3540,  7.880
  3600,  5.467
  3660,  2.736
  3720,  3.190
  3780,  1.438
  3840,  3.493
  3900,  2.429
  3960,  2.713
  4020,  2.704
  4080,  3.857
  4140,  3.366
  4200,  4.998
  4260,  0.512
  4320,  3.290
  4380,  2.771
  4440,  3.014
  4500,  2.877
  4560,  1.915
  4620,  1.500
  4680,  2.665
  4740,  2.990
  4800,  2.398
  4860,  2.865
  4920,  2.546
  4980,  2.066
  5040,  5.551
  5100,  9.381
  5160,  6.696
  5220,  6.196
  5280,  5.031
  5340,  5.519
  5400,  6.270
  5460, 11.122
  5520,  7.201
  5580,  6.473
  5640,  7.867
  5700, 11.003
  5760,  6.085
  5820, 13.186
  5880, 16.321
  5940, 13.766
  6000, 15.987
  6060, 14.827
  6120, 20.482
  6180, 20.426
  6240, 14.656
  6300, 18.021
  6360, 14.183
  6420, 15.637
  6480, 16.107
  6540, 16.713
  6600, 19.466
  6660, 28.400
  6720, 25.057
  6780, 21.376
  6840, 20.301
  6900, 21.605
  6960, 21.849
  7020, 24.540
  7080, 17.428
  7140, 18.387
  7200, 17.456
  7260, 21.595
  7320, 26.147
  7380, 22.753
  7440, 23.927
  7500, 23.969
  7560, 25.026
  7620, 18.632
  7680, 25.113
  7740, 21.908
  7800, 21.778
  7860, 29.228
  7920, 38.528
  7980, 40.887
  8040, 41.169
  8100, 49.153
  8160, 45.107
  8220, 44.593
  8280, 46.396
  8340, 39.423
  8400, 45.126
  8460, 46.965
  8520, 48.167
  8580, 42.644
  8640, 40.437
  8700, 39.065
  8760, 66.911
  8820, 69.615
  8880, 52.323
  8940, 48.979
  9000, 53.535
  9060, 54.124
  9120, 43.039
  9180, 52.277
  9240, 61.695
  9300, 48.913
  9360, 54.182
  9420, 52.148
  9480, 53.167
  9540, 45.471
  9600, 53.968
  9660, 45.339
  9720, 44.140
  9780, -9999.000
  9840, 40.978
  9900, 41.053
  9960, 50.690
 10020, 39.807
 10080, 39.303
 10140, 34.287
 10200, 34.146
 10260, 41.720
 10320, 39.143
 10380, 40.320
 10440, 37.098
 10500, 34.256
 10560, 38.166
 10620, 34.629
 10680, 34.964
 10740, 37.211
 10800, 46.523
 10860, 54.913
 10920, 41.233
 10980, 50.723
 11040, 44.176
 11100, 50.282
 11160, 54.974
 11220, 45.896
 11280, 52.261
 11340, 50.698
 11400, 37.507
 11460, 30.552
 11520, 36.752
 11580, 44.853
 11640, 26.160
 11700, 35.601
 11760, 34.331
 11820, 25.643
 11880, 33.820
 11940, 32.984
 12000, 34.616
 12060, 31.811
 12120, 29.878
 12180, 29.047
 12240, 28.473
 12300, 21.368
 12360, 34.336
 12420, 31.483
 12480, 35.214
 12540, 34.353
 12600, 34.396
 12660, 25.051
 12720, 29.547
 12780, 41.179
 12840, 29.940
 12900, 28.659
 12960, 33.224
 13020, 36.442
 13080, 28.695
 13140, 34.439
 13200, 29.001
 13260, 31.357
 13320, 34.678
 13380, 26.386
 13440, 25.161
 13500, -9999.000
 13560, 25.520
 13620, 33.129
 13680, 35.667
 13740, 32.014
 13800, 31.781
 13860, 32.435
 13920, 30.885
 13980, 28.091
 14040, 31.264
 14100, 24.581
 14160, 18.185
 14220, 24.998
 14280, 15.537
 14340, 17.331
 14400, 21.921
 14460, 19.124
 14520, 20.876
 14580, 16.704
 14640, 24.754
 14700, 19.853
 14760, 19.401
 14820, 22.889
 14880, 18.720
 14940, 19.308
 15000, 20.994
 15060, 16.617
 15120, 21.121
 15180, 17.310
 15240, 23.561
 15300, 18.416
 15360, 42.674
 15420, 32.258
 15480, 27.088
 15540, 20.162
 15600, 18.424
 15660, 20.679
 15720, 17.421
 15780, 20.223
 15840, 16.777
 15900, 13.324
 15960, 17.672
 16020, 18.250
 16080, 18.614
 16140, 17.326
 16200, 19.116
 16260, 20.607
 16320, 18.557
 16380, 10.891
 16440, 20.988
 16500, 10.932
 16560, 18.602
 16620, 12.491
 16680, 17.474
 16740, 10.317
 16800, 16.880
 16860, 26.173
 16920, 15.424
 16980, 22.461
 17040, 17.800
 17100, 17.333
 17160, -9999.000
 17220, 33.953
 17280, 32.380
 17340, 34.964
 17400, 68.586
 17460, 95.301
 17520, 163.134
 17580, 233.876
 17640, 174.443
 17700, 142.543
 17760, 55.111
 17820, 55.186
 17880, 70.109
 17940, 43.814
 18000, 41.680
 18060, 49.520
 18120, 38.003
 18180, 43.633
 18240, 37.462
 18300, 36.953
 18360, 47.593
 18420, 38.209
 18480, 52.294
 18540, 38.085
 18600, 37.742
 18660, 54.856
 18720, 39.089
 18780, 46.557
 18840, 39.174
 18900, 25.257
 18960, 34.432
 19020, -9999.000
 19080, 22.384
 19140, 37.970
 19200, 32.902
 19260, 19.394
 19320, 14.823
 19380, 27.080
 19440, 12.503
 19500,  9.305
 19560, 23.413
 19620, 23.923
 19680, 15.469
 19740,  7.255
 19800, 13.746
 19860, 25.289
 19920, 16.140
 19980, 18.644
 20040, 17.923
 20100, 22.817
 20160, 18.290
 20220, 25.987
 20280, 18.944
 20340, 32.684
 20400, 17.987
 20460, 22.457
 20520, 13.497
 20580, 18.319
 20640,  8.369
 20700,  8.709
 20760, 15.158
 20820, 23.090
 20880, -9999.000
 20940, 10.485
 21000, 11.315
 21060,  9.241
 21120, 15.116
 21180, 18.742
 21240, 12.463
 21300, 19.709
 21360, 17.077
 21420, 18.013
 21480, 16.212
 21540, 21.805
 21600, 12.796
 21660, 14.415
 21720, 15.781
 21780, 12.404
 21840, 17.976
 21900, 25.170
 21960, 20.144
 22020, 27.726
 22080, 13.100
 22140, 17.224
 22200, 11.281
 22260, 10.641
 22320, 20.636
 22380, 15.774
 22440, 15.410
 22500, 12.741
 22560, 16.045
 22620, 14.781
 22680,  9.196
 22740, 10.906
 22800, 18.544
 22860, 15.382
 22920, 19.907
 22980, 18.267
 23040, 11.695
 23100, 16.823
 23160, 17.989
 23220, 20.507
 23280, 11.571
 23340, 10.760
 23400, 14.898
 23460,  9.044
 23520, 15.960
 23580, 13.783
 23640, 17.340
 23700, 20.181
 23760, 19.929
 23820, 10.892
 23880, 17.075
 23940, 19.786
 24000, 42.153
 24060, 42.300
 24120, 59.605
 24180, 59.820
 24240, 54.028
 24300, 70.141
 24360, 58.330
 24420, 48.070
 24480, 67.440
 24540, -9999.000
 24600, 61.176
 24660, 55.473
 24720, 71.126
 24780, 70.935
 24840, 71.479
 24900, 77.587
 24960, 78.812
 25020, 77.026
 25080, 66.341
 25140, 58.801
 25200, 53.289
 25260, 52.131
 25320, 36.536
 25380, 34.325
 25440, 36.256
 25500, 36.232
 25560, 33.347
 25620, 23.714
 25680, 18.202
 25740, 27.011
 25800, 12.965
 25860,  8.585
 25920, 14.117
 25980, 11.926
 26040, 16.545
 26100,  8.795
 26160, 16.666
 26220, 17.662
 26280, 21.856
 26340, 11.752
 26400, -9999.000
 26460, 20.788
 26520, 27.827
 26580, 36.781
 26640, 23.472
 26700, 27.041
 26760, 15.426
 26820,  0.696
 26880, 21.863
 26940, 17.604
 27000, 13.500
 27060,  6.526
 27120,  8.108
 27180, 11.107
 27240,  7.015
 27300,  3.196
 27360, 13.981
 27420,  9.017
 27480,  6.469
 27540,  6.346
 27600,  6.788
 27660, 12.881
 27720, 13.139
 27780,  8.189
 27840, 11.283
 27900, 10.689
 27960, 12.375
 28020, 12.488
 28080,  8.853
 28140, 13.964
 28200,  7.722
 28260, -9999.000
 28320, 14.708
 28380,  3.959
 28440,  8.708
 28500, 10.936
 28560, 10.400
 28620, 14.467
 28680, 10.282
 28740, 11.593
 28800, 19.685
 28860, 16.139
 28920, 13.665
 28980,  6.694
 29040, 11.588
 29100, 10.059
 29160,  5.508
 29220, 13.373
 29280,  9.949
 29340, 16.195
 29400, 10.634
 29460,  4.206
 29520,  8.829
 29580,  6.100
 29640,  5.729
 29700,  4.342
 29760,  8.750
 29820,  5.853
 29880,  7.699
 29940, 16.559
 30000, 14.186
 30060, -1.597
 30120,  9.309
 30180,  9.970
 30240, 15.303
 30300, 15.598
 30360, 14.415
 30420, 12.959
 30480, 18.711
 30540, 14.152
 30600,  9.360
 30660, 12.412
 30720, 11.973
 30780,  9.475
 30840,  6.004
 30900, 14.597
 30960,  6.117
 31020, 15.674
 31080, 13.394
 31140,  9.880
 31200, 12.296
 31260,  9.726
 31320, 14.990
 31380, 11.401
 31440, 12.735
 31500, 14.870
 31560, 16.353
 31620, 12.005
 31680, 17.242
 31740, 12.842
 31800, 13.497
 31860, 16.955
 31920, -1.526
 31980, 18.902
 32040, 12.812
 32100,  7.361
 32160,  9.697
 32220, 13.885
 32280, 10.063
 32340,  7.290
 32400,  6.337
 32460,  6.614
 32520, 14.018
 32580, 16.998
 32640, 13.891
 32700, 13.427
 32760, 11.953
 32820, 10.627
 32880, 16.710
 32940, 16.967
 33000, 14.392
 33060, 21.019
 33120, 15.668
 33180,  7.311
 33240, 13.920
 33300,  7.167
 33360, 13.751
 33420, 13.158
 33480,  8.203
 33540, 20.964
 33600, 17.072
 33660,  8.371
 33720, 15.091
 33780,  9.386
 33840, 13.686
 33900, 15.672
 33960, 14.616
 34020, 12.623
 34080, 17.228
 34140, 16.516
 34200, 15.165
 34260, 20.444
 34320, 20.485
 34380, 28.197
 34440, 28.810
 34500, 23.071
 34560, 23.282
 34620, 19.838
 34680, 23.522
 34740, 28.960
 34800, 41.174
 34860, 34.569
 34920, 42.890
 34980, 50.370
 35040, 48.659
 35100, 45.881
 35160, 51.173
 35220, 64.812
 35280, 75.466
 35340, 97.116
 35400, 105.315
 35460, 113.546
 35520, 87.527
 35580, 89.942
 35640, -9999.000
 35700, 119.553
 35760, 123.633
 35820, 138.651
 35880, 149.229
 35940, 157.460
 36000, 159.957
 36060, 157.844
 36120, 167.034
 36180, 171.855
 36240, 171.955
 36300, 169.287
 36360, 166.704
 36420, 159.926
 36480, 169.396
 36540, 159.630
 36600, 174.626
 36660, 161.910
 36720, 158.936
 36780, 157.487
 36840, 158.921
 36900, 168.164
 36960, 165.449
 37020, 153.190
 37080, 153.132
 37140, 156.384
 37200, 161.173
 37260, 173.554
 37320, 173.056
 37380, 165.725
 37440, 157.000
 37500, -9999.000
 37560, 145.996
 37620, 144.863
 37680, 138.907
 37740, 144.236
 37800, 134.627
 37860, 119.650
 37920, 126.272
 37980, 114.945
 38040, 117.960
 38100, 90.335
 38160, 78.724
 38220, 75.926
 38280, 90.947
 38340, 95.977
 38400, 78.376
 38460, 68.292
 38520, 70.165
 38580, 62.500
 38640, 70.763
 38700, 65.716
 38760, 56.231
 38820, 42.566
 38880, 55.482
 38940, 35.640
 39000, 24.790
 39060, 15.632
 39120, 16.388
 39180, 23.025
 39240, 18.909
 39300,  7.817
 39360, -9999.000
 39420, 17.012
 39480, 13.934
 39540, 20.850
 39600, 16.875
 39660, 17.928
 39720, 15.087
 39780, 14.225
 39840, 12.611
 39900, 22.787
 39960, 23.692
 40020, 15.181
 40080, 18.924
 40140, 20.463
 40200, 15.771
 40260, 20.582
 40320, 23.587
 40380, 13.970
 40440, 15.913
 40500, 21.716
 40560, 22.958
 40620, 20.573
 40680, 26.150
 40740, 21.329
 40800, 29.052
 40860, 25.404
 40920, 20.150
 40980, 23.168
 41040, 24.174
 41100, 26.414
 41160, 30.683
 41220, 28.838
 41280, 19.098
 41340, 13.427
 41400, 22.246
 41460, 31.838
 41520, 19.113
 41580, 17.826
 41640, 22.682
 41700, 26.696
 41760, 28.666
 41820, 18.434
 41880, 27.833
 41940, 22.093
 42000, 23.922
 42060, 24.931
 42120, 24.144
 42180, 36.716
 42240, 25.679
 42300, 21.515
 42360, 20.360
 42420, 22.828
 42480, 48.625
 42540, 70.349
 42600, 63.603
 42660, 46.278
 42720, 80.422
 42780, 120.618
 42840, 161.595
 42900, 201.305
 42960, 186.953
 43020, -9999.000
 43080, 167.176
 43140, 167.783
 43200, 157.453
 43260, 168.459
 43320, 139.969
 43380, 145.689
 43440, 142.848
 43500, 119.091
 43560, 103.085
 43620, 131.188
 43680, 136.754
 43740, 112.130
 43800, 96.286
 43860, 96.278
 43920, 113.593
 43980, 155.954
 44040, 134.265
 44100, 143.218
 44160, 163.268
 44220, 165.000
 44280, 173.283
 44340, 173.685
 44400, 158.015
 44460, 161.982
 44520, 163.486
 44580, 108.455
 44640, 167.715
 44700, 172.741
 44760, 179.751
 44820, 130.725
 44880, -9999.000
 44940, 190.881
 45000, 190.193
 45060, 188.507
 45120, 204.628
 45180, 200.790
 45240, 193.575
 45300, 223.485
 45360, 219.651
 45420, 217.789
 45480, 213.825
 45540, 217.542
 45600, 150.879
 45660, 136.327
 45720, 71.507
 45780, 90.804
 45840, 101.427
 45900, 76.100
 45960, 111.053
 46020, 78.614
 46080, 60.989
 46140, 66.352
 46200, 91.827
 46260, 83.654
 46320, 61.313
 46380, 65.798
 46440, 71.628
 46500, 64.676
 46560, 44.224
 46620, 55.112
 46680, 72.518
 46740, -9999.000
 46800, 86.862
 46860, 124.342
 46920, 85.231
 46980, 71.776
 47040, 48.608
 47100, 56.591
 47160, 61.047
 47220, 44.379
 47280, 40.949
 47340, 31.082
 47400, 60.300
 47460, 85.436
 47520, 111.801
 47580, 123.779
 47640, 69.483
 47700, 80.302
 47760, 81.032
 47820, 60.524
 47880, 70.101
 47940, 57.950
 48000, 60.582
 48060, 69.369
 48120, 97.773
 48180, 103.796
 48240, 106.423
 48300, 90.144
 48360, 88.986
 48420, 51.270
 48480, 88.048
 48540, 102.107
 48600, 106.891
 48660, 98.123
 48720, 104.951
 48780, 102.421
 48840, 75.958
 48900, 83.147
 48960, 82.751
 49020, 75.376
 49080, 92.845
 49140, 65.906
 49200, 103.967
 49260, 99.300
 49320, 112.059
 49380, 124.036
 49440, 107.981
 49500, 91.475
 49560, 90.411
 49620, 85.890
 49680, 101.283
 49740, 103.865
 49800, 98.525
 49860, 117.737
 49920, 99.784
 49980, 100.417
 50040, 75.550
 50100, 75.334
 50160, 82.616
 50220, 85.508
 50280, 38.224
 50340, 33.334
 50400, 26.759
 50460, 59.935
 50520, 72.071
 50580, 66.094
 50640, 52.246
 50700, 51.853
 50760, 40.399
 50820, 56.889
 50880, 35.872
 50940, 47.929
 51000, 59.572
 51060, 54.808
 51120, 60.421
 51180, 73.820
 51240, 74.461
 51300, 79.525
 51360, 82.200
 51420, 86.512
 51480, 97.270
 51540, 82.891
 51600, 106.515
 51660, 100.204
 51720, 88.289
 51780, 73.513
 51840, 71.920
 51900, 86.288
 51960, 75.806
 52020, -9999.000
 52080, -9999.000
 52140, -9999.000
 52200, -9999.000
 52260, -9999.000
 52320, -9999.000
 52380, -9999.000
 52440, -9999.000
 52500, 93.050
 52560, 98.421
 52620, 96.926
 52680, 86.964
 52740, 76.622
 52800, 83.688
 52860, 97.608
 52920, 98.571
 52980, 110.483
 53040, 77.785
 53100, 61.232
 53160, 69.402
 53220, 74.443
 53280, 64.303
 53340, 99.899
 53400, 94.693
 53460, 81.633
 53520, 93.007
 53580, 88.929
 53640, 93.890
 53700, 69.948
 53760, 56.635
 53820, 34.059
 53880, 55.101
 53940, 63.750
 54000, 61.540
 54060, 56.004
 54120, 55.946
 54180, -9999.000
 54240, 81.474
 54300, 87.336
 54360, 82.490
 54420, 76.805
 54480, 73.989
 54540, 103.540
 54600, 71.268
 54660, 60.792
 54720, 78.272
 54780, 69.030
 54840, 58.681
 54900, 76.866
 54960, 74.057
 55020, 79.999
 55080, 68.434
 55140, 57.011
 55200, 72.875
 55260, 66.466
 55320, 77.353
 55380, 49.160
 55440, 48.958
 55500, 53.120
 55560, 58.266
 55620, 53.531
 55680, 69.304
 55740, 44.040
 55800, 48.633
 55860, 56.822
 55920, 41.291
 55980, 51.396
 56040, 52.975
 56100, 65.178
 56160, 63.365
 56220, 41.784
 56280, 43.337
 56340, 45.129
 56400, 42.210
 56460, 37.753
 56520, 36.732
 56580, 40.279
 56640, 39.887
 56700, 41.639
 56760, 62.469
 56820, 86.959
 56880, 62.496
 56940, 50.554
 57000, 51.320
 57060, 49.085
 57120, 57.227
 57180, 71.582
 57240, 46.494
 57300, 36.613
 57360, 46.356
 57420, 31.120
 57480, 41.939
 57540, 44.056
 57600, 62.131
 57660, 50.719
 57720, 35.427
 57780, 20.928
 57840, 20.599
 57900, -9999.000
 57960, 15.823
 58020, 29.540
 58080, 19.398
 58140, 27.198
 58200, 33.261
 58260, 43.288
 58320, 41.093
 58380, 49.391
 58440, 37.300
 58500, 48.642
 58560, 48.382
 58620, 44.942
 58680, 37.168
 58740, 29.859
 58800, 37.768
 58860, 42.024
 58920, 34.961
 58980, 25.555
 59040, 24.559
 59100, 27.098
 59160, 24.134
 59220, 23.245
 59280, 24.794
 59340, 49.668
 59400, 54.043
 59460, 34.928
 59520, 35.923
 59580, 24.645
 59640, 41.501
 59700, 35.225
 59760, 43.743
 59820, 40.754
 59880, 33.093
 59940, 35.785
 60000, 36.844
 60060, 42.081
 60120, 36.468
 60180, 39.391
 60240, 52.803
 60300, 41.440
 60360, 36.679
 60420, 41.773
 60480, 29.058
 60540, 34.088
 60600, 32.022
 60660, 37.847
 60720, 32.105
 60780, 47.693
 60840, 45.542
 60900, 60.508
 60960, 52.088
 61020, 27.918
 61080, 35.403
 61140, 22.320
 61200, 25.393
 61260, 22.667
 61320, 30.494
 61380, 23.124
 61440, 33.007
 61500, 26.500
 61560, 29.394
 61620,  9.007
 61680, 29.331
 61740, 29.917
 61800, 28.615
 61860, 43.059
 61920, 40.442
 61980, 72.853
 62040, 54.295
 62100, 22.189
 62160, 18.488
 62220, 12.673
 62280, 14.347
 62340, 24.269
 62400, 16.434
 62460, 12.462
 62520,  6.211
 62580, 10.157
 62640, 15.386
 62700, 17.392
 62760, 36.470
 62820, 26.060
 62880, 20.801
 62940,  9.665
 63000, 22.878
 63060,  8.250
 63120, 13.368
 63180, 17.194
 63240, 21.451
 63300, 11.454
 63360, 42.784
 63420, 55.568
 63480, 21.007
 63540, 38.830
 63600, 39.337
 63660, 33.913
 63720, 37.439
 63780, 14.548
 63840, 28.694
 63900, 16.587
 63960, 15.058
 64020, 16.379
 64080, 16.221
 64140, 20.914
 64200, 26.281
 64260, 22.906
 64320, 23.180
 64380, 21.118
 64440, 20.636
 64500, 24.862
 64560, 21.050
 64620, 19.125
 64680, 32.858
 64740, 49.527
 64800, 22.483
 64860, 41.607
 64920, 29.662
 64980, 18.498
 65040, 19.759
 65100, 13.298
 65160, 18.242
 65220, 20.487
 65280, -9999.000
 65340,  9.686
 65400, 19.863
 65460, 15.398
 65520, 22.572
 65580, 16.227
 65640, 23.201
 65700, 16.585
 65760, 26.323
 65820, 31.490
 65880, 17.749
 65940, 20.569
 66000, 20.279
 66060, 16.065
 66120, 19.491
 66180, 15.240
 66240, 22.858
 66300, 16.731
 66360, 19.531
 66420, 24.877
 66480, 22.262
 66540, 43.272
 66600, 14.244
 66660, 19.013
 66720, 17.066
 66780, 17.905
 66840, 22.836
 66900, 30.185
 66960, 28.073
 67020, 16.505
 67080, 15.900
 67140, -9999.000
 67200, 17.107
 67260, 13.578
 67320, 11.239
 67380,  9.988
 67440,  9.152
 67500,  9.488
 67560,  6.814
 67620, 11.475
 67680,  9.434
 67740, 10.615
 67800, 14.858
 67860,  7.721
 67920, 43.597
 67980, 28.763
 68040, 23.901
 68100, 39.282
 68160, 31.538
 68220, 16.989
 68280, 31.207
 68340, 14.916
 68400,  6.537
 68460,  9.621
 68520, 18.774
 68580, 14.663
 68640, 17.673
 68700, 17.283
 68760,  9.313
 68820, 10.192
 68880,  9.136
 68940,  7.699
 69000, -9999.000
 69060,  8.309
 69120,  6.602
 69180, 11.255
 69240,  9.778
 69300,  9.750
 69360, 11.332
 69420,  8.609
 69480, 15.656
 69540, 17.569
 69600, 10.382
 69660, 12.521
 69720, 15.711
 69780, 17.757
 69840, 12.436
 69900,  9.792
 69960, 19.669
 70020, 14.767
 70080, 19.195
 70140,  7.264
 70200, 11.278
 70260,  8.602
 70320, 12.021
 70380, 12.414
 70440, 11.121
 70500, 10.913
 70560,  7.001
 70620,  6.733
 70680,  7.340
 70740,  9.206
 70800, 12.172
 70860, 10.444
 70920, 12.784
 70980,  8.937
 71040, 14.920
 71100, 11.171
 71160,  8.766
 71220, 14.399
 71280, 14.220
 71340,  7.054
 71400,  5.562
 71460,  4.390
 71520,  4.442
 71580, 10.886
 71640,  9.917
 71700,  7.376
 71760,  1.029
 71820,  1.821
 71880, -1.049
 71940,  3.529
 72000,  4.078
 72060,  4.081
 72120,  6.036
 72180,  4.053
 72240,  1.170
 72300,  4.502
 72360,  4.245
 72420,  6.613
 72480,  3.297
 72540,  4.914
 72600,  2.488
 72660, -9999.000
 72720,  7.670
 72780,  4.523
 72840,  8.363
 72900,  8.146
 72960, 11.622
 73020,  5.474
 73080,  3.140
 73140,  2.772
 73200,  2.726
 73260,  8.028
 73320,  4.009
 73380,  0.731
 73440,  0.811
 73500, 14.280
 73560,  0.386
 73620,  3.794
 73680,  6.314
 73740,  6.571
 73800,  4.123
 73860,  1.175
 73920,  1.420
 73980,  0.828
 74040, -0.101
 74100,  7.303
 74160,  3.997
 74220,  3.313
 74280,  6.184
 74340,  7.494
 74400,  4.602
 74460,  4.644
 74520, -4.884
 74580,  5.248
 74640,  5.513
 74700,  5.997
 74760,  2.927
 74820,  6.938
 74880,  3.240
 74940,  4.716
 75000,  7.590
 75060,  6.891
 75120,  5.028
 75180, 16.679
 75240,  7.311
 75300,  2.866
 75360,  6.305
 75420,  1.595
 75480,  0.893
 75540,  0.422
 75600,  5.697
 75660,  3.994
 75720,  5.815
 75780,  2.017
 75840,  1.330
 75900,  4.573
 75960,  4.756
 76020,  3.933
 76080,  5.503
 76140,  3.291
 76200,  4.404
 76260,  1.284
 76320,  4.224
 76380, -9999.000
 76440,  3.798
 76500,  1.249
 76560,  4.570
 76620,  4.256
 76680,  6.174
 76740,  4.220
 76800,  0.942
 76860,  1.518
 76920,  0.960
 76980,  0.057
 77040,  3.322
 77100,  2.902
 77160,  2.115
 77220,  3.106
 77280,  2.401
 77340,  3.919
 77400,  3.092
 77460,  4.160
 77520,  0.818
 77580,  3.800
 77640,  0.244
 77700, -0.326
 77760,  0.158
 77820,  0.772
 77880,  0.974
 77940,  1.088
 78000,  0.988
 78060,  2.787
 78120,  3.840
 78180,  5.487
 78240,  1.747
 78300,  2.006
 78360, 14.266
 78420,  4.660
 78480,  4.164
 78540,  7.026
 78600,  3.518
 78660,  3.031
 78720,  3.472
 78780,  2.949
 78840,  5.918
 78900,  6.777
 78960,  1.468
 79020, -1.003
 79080, -1.929
 79140, -1.037
 79200, -2.404
 79260,  0.022
 79320,  0.447
 79380,  1.260
 79440,  4.287
 79500,  5.199
 79560,  6.866
 79620,  1.386
 79680,  0.585
 79740,  1.224
 79800,  0.155
 79860,  5.359
 79920,  5.192
 79980,  2.406
 80040,  7.156
 80100, -2.622
 80160,  6.288
 80220, 11.673
 80280,  0.642
 80340,  2.377
 80400, -0.398
 80460,  3.924
 80520,  1.698
 80580,  2.855
 80640,  1.632
 80700,  0.479
 80760,  0.857
 80820,  3.956
 80880, -0.031
 80940,  1.371
 81000,  3.038
 81060, 19.957
 81120,  2.158
 81180,  5.784
 81240,  1.215
 81300,  1.422
 81360,  0.543
 81420,  0.046
 81480,  0.058
 81540,  1.927
 81600,  1.681
 81660,  4.236
 81720, 29.121
 81780, 12.940
 81840,  0.484
 81900,  0.111
 81960,  6.166
 82020, 10.678
 82080,  6.092
 82140,  9.483
 82200,  1.446
 82260, 11.641
 82320, 13.610
 82380, 13.797
 82440,  9.552
 82500, 14.969
 82560,  8.794
 82620, 13.549
 82680,  9.959
 82740, 14.225
 82800,  7.663
 82860,  7.979
 82920,  6.809
 82980,  7.095
 83040, 13.873
 83100, 10.543
 83160,  5.156
 83220,  2.412
 83280, -1.730
 83340,  3.083
 83400, -0.864
 83460,  1.321
 83520,  0.540
 83580,  2.830
 83640,  0.411
 83700,  1.241
 83760, -1.351
 83820,  0.195
 83880, -0.759
 83940,  2.647
 84000,  1.028
 84060,  3.211
 84120,  0.077
 84180,  1.189
 84240,  0.254
 84300,  3.543
 84360,  9.494
 84420,  2.028
 84480,  6.591
 84540,  4.368
 84600,  0.802
 84660, -0.276
 84720, 12.211
 84780, 10.691
 84840, 17.431
 84900, -9999.000
 84960,  2.840
 85020,  0.912
 85080, -0.697
 85140, 28.958
 85200, -0.400
 85260,  1.928
 85320,  2.330
 85380, 13.279
 85440, 43.769
 85500, 78.715
 85560, 382.656
 85620, 291.213
 85680,  8.426
 85740, 65.892
 85800, 198.905
 85860, 25.569
 85920,  3.873
 85980,  5.652
 86040,  1.267
 86100,  3.547
 86160,  5.423
 86220,  7.331
 86280,  5.619
 86340,  3.569
