33, 1001
Michael A Robinson, Chris Jernigan, Subi Thakali
NOAA ESRL Chemical Sciences Laboratory and CIRES, U. of Colorado
NOAA Iodide CIMS Instrument
USOS
1, 1
2024, 08, 05, 2024, 08, 05
1
starttime_UTC, seconds_past_midnight, seconds_of_day_since_00:00:00_UTC
1
1
-9999
HNO3_NOAACIMS, pptv, Gas_HNO3_InSitu_S_AVMR, 
0
18
PI_CONTACT_INFO: 325 Broadway, R/CSD 7, Boulder, Colorado 80305; michael.a.robinson@noaa.gov; chris.jernigan@noaa.gov;
PLATFORM: NOAA CSL Mobile Lab
LOCATION: SLC, Utah
ASSOCIATED_DATA: 1Hz data also available on request.
INSTRUMENT_INFO: NOAA I- ToF CIMS
DATA_INFO: All data in parts per trillion by volume (pptv). 1 Hz data is available upon request.
UNCERTAINTY: TBD
ULOD_FLAG: -7777
ULOD_VALUE: N/A
LLOD_FLAG: -8888
LLOD_VALUE: N/A
DM_CONTACT_INFO: Nathan Howard; nathan.h.howard@noaa.gov
PROJECT_INFO: USOS, summer 2024. https://csl.noaa.gov/groups/csl7/measurements/2024usos/
STIPULATIONS_ON_USE: Users are strongly encouraged to contact the PI for proper data usage.
OTHER_COMMENTS: 
REVISION: RA
RA: Preliminary Data; For in-field use only
starttime_UTC, HNO3_NOAACIMS
     0, 579.536
    60, 583.958
   120, 601.869
   180, 611.217
   240, 609.991
   300, 612.843
   360, 606.939
   420, 608.125
   480, 611.949
   540, 664.364
   600, 690.279
   660, 696.291
   720, 681.211
   780, 658.802
   840, 638.598
   900, 630.553
   960, 605.909
  1020, 586.412
  1080, 576.768
  1140, 556.437
  1200, 553.280
  1260, 556.052
  1320, -9999.000
  1380, 533.937
  1440, 537.251
  1500, 541.995
  1560, 555.808
  1620, 562.919
  1680, 562.415
  1740, 560.148
  1800, 556.292
  1860, 551.222
  1920, 540.020
  1980, 535.239
  2040, 510.682
  2100, 522.502
  2160, 533.911
  2220, 550.161
  2280, 566.752
  2340, 582.312
  2400, 561.082
  2460, 517.479
  2520, 510.726
  2580, 526.927
  2640, 522.838
  2700, 508.490
  2760, 507.433
  2820, 513.313
  2880, 505.492
  2940, 502.217
  3000, 492.703
  3060, 501.254
  3120, 504.265
  3180, -9999.000
  3240, 458.590
  3300, 473.825
  3360, 472.953
  3420, 474.112
  3480, 472.080
  3540, 485.685
  3600, 523.703
  3660, 505.388
  3720, 496.198
  3780, 483.534
  3840, 460.189
  3900, 439.868
  3960, 435.361
  4020, 432.449
  4080, 424.143
  4140, 423.236
  4200, 422.493
  4260, 430.830
  4320, 428.691
  4380, 412.120
  4440, 412.767
  4500, 437.000
  4560, 436.752
  4620, 442.408
  4680, 441.450
  4740, 435.579
  4800, 434.455
  4860, 436.421
  4920, 434.941
  4980, 433.404
  5040, 381.835
  5100, 396.986
  5160, 405.547
  5220, 419.303
  5280, 418.898
  5340, 419.889
  5400, 430.002
  5460, 429.261
  5520, 417.168
  5580, 408.932
  5640, 413.497
  5700, 406.113
  5760, 407.736
  5820, 392.387
  5880, 377.417
  5940, 371.280
  6000, 376.448
  6060, 375.042
  6120, 379.854
  6180, 387.313
  6240, 389.183
  6300, 399.641
  6360, 392.199
  6420, 384.237
  6480, 389.994
  6540, 391.819
  6600, 393.675
  6660, 369.880
  6720, 362.455
  6780, 360.439
  6840, 348.506
  6900, 295.709
  6960, 303.908
  7020, 311.968
  7080, 326.214
  7140, 328.085
  7200, 361.969
  7260, 381.386
  7320, 378.351
  7380, 389.044
  7440, 385.228
  7500, 381.833
  7560, 381.953
  7620, 385.409
  7680, 385.796
  7740, 378.543
  7800, 367.495
  7860, 360.826
  7920, 346.301
  7980, 334.767
  8040, 316.797
  8100, 311.339
  8160, 297.316
  8220, 289.144
  8280, 279.454
  8340, 287.483
  8400, 281.464
  8460, 291.006
  8520, 289.635
  8580, 282.267
  8640, 266.362
  8700, 246.189
  8760, 233.971
  8820, 224.832
  8880, 228.085
  8940, 212.319
  9000, 180.219
  9060, 167.481
  9120, 169.077
  9180, 158.701
  9240, 154.921
  9300, 154.469
  9360, 160.173
  9420, 161.645
  9480, 164.542
  9540, 171.581
  9600, 185.952
  9660, 185.879
  9720, 188.966
  9780, 196.978
  9840, 206.185
  9900, 218.042
  9960, 234.497
 10020, 248.786
 10080, 253.155
 10140, 251.933
 10200, 251.590
 10260, 245.482
 10320, 237.134
 10380, 230.163
 10440, 237.178
 10500, 233.446
 10560, -9999.000
 10620, 220.636
 10680, 213.768
 10740, 213.936
 10800, 211.622
 10860, 210.470
 10920, 211.392
 10980, 219.307
 11040, 224.508
 11100, 231.613
 11160, 238.956
 11220, 243.231
 11280, 242.269
 11340, 235.540
 11400, 231.429
 11460, 229.760
 11520, 223.797
 11580, 215.923
 11640, 212.864
 11700, 206.434
 11760, 203.594
 11820, 202.414
 11880, 201.717
 11940, 198.855
 12000, 195.500
 12060, 192.815
 12120, 197.235
 12180, 180.050
 12240, 184.098
 12300, 184.154
 12360, 184.191
 12420, 186.606
 12480, 190.761
 12540, 190.054
 12600, 186.178
 12660, 184.224
 12720, 184.910
 12780, 180.383
 12840, 180.531
 12900, 181.155
 12960, 181.295
 13020, 175.851
 13080, 176.879
 13140, 169.539
 13200, 175.925
 13260, 177.147
 13320, 168.124
 13380, 162.527
 13440, 170.800
 13500, 175.383
 13560, 185.185
 13620, 188.705
 13680, 191.436
 13740, 192.736
 13800, 192.092
 13860, 189.928
 13920, 186.577
 13980, 181.813
 14040, 181.634
 14100, 177.097
 14160, 175.115
 14220, 176.783
 14280, -9999.000
 14340, 167.779
 14400, 163.753
 14460, 164.817
 14520, 161.062
 14580, 169.456
 14640, 177.887
 14700, 181.269
 14760, 185.516
 14820, 195.336
 14880, 190.722
 14940, 187.169
 15000, 184.137
 15060, 180.238
 15120, 180.332
 15180, 179.295
 15240, 177.058
 15300, 173.842
 15360, 179.543
 15420, 181.337
 15480, 183.075
 15540, 179.934
 15600, 183.122
 15660, 179.384
 15720, 173.495
 15780, 175.939
 15840, 172.291
 15900, 167.006
 15960, 164.985
 16020, 167.741
 16080, 166.591
 16140, 157.804
 16200, 160.481
 16260, 159.850
 16320, 160.911
 16380, 157.419
 16440, 158.058
 16500, 154.017
 16560, 154.615
 16620, 149.986
 16680, 149.466
 16740, 143.755
 16800, 138.768
 16860, 136.665
 16920, 142.660
 16980, 141.759
 17040, 152.262
 17100, 157.339
 17160, 163.755
 17220, 163.761
 17280, 165.310
 17340, 164.730
 17400, 159.438
 17460, 155.048
 17520, 149.661
 17580, 147.594
 17640, 147.009
 17700, 146.585
 17760, 148.133
 17820, 154.531
 17880, 161.468
 17940, 166.880
 18000, 171.049
 18060, 158.742
 18120, 163.745
 18180, 162.677
 18240, 161.862
 18300, 158.187
 18360, 155.650
 18420, 152.866
 18480, 150.265
 18540, 155.003
 18600, 151.686
 18660, 154.792
 18720, 153.995
 18780, 152.895
 18840, 151.369
 18900, 151.436
 18960, 147.541
 19020, 145.762
 19080, 149.985
 19140, 154.141
 19200, 158.448
 19260, 155.282
 19320, 161.655
 19380, 151.718
 19440, 153.921
 19500, 152.566
 19560, 147.457
 19620, 145.118
 19680, 145.083
 19740, 147.565
 19800, 149.241
 19860, 148.677
 19920, 153.265
 19980, 155.097
 20040, 150.671
 20100, 148.959
 20160, 145.598
 20220, 141.513
 20280, 147.752
 20340, 150.103
 20400, 151.366
 20460, 154.583
 20520, 154.682
 20580, 147.621
 20640, 145.755
 20700, 144.683
 20760, 134.686
 20820, 144.300
 20880, 143.952
 20940, 144.065
 21000, 146.042
 21060, 147.665
 21120, 150.437
 21180, 149.844
 21240, 148.061
 21300, 140.540
 21360, 139.844
 21420, 136.010
 21480, 137.270
 21540, 143.021
 21600, 143.797
 21660, -9999.000
 21720, 137.259
 21780, 142.103
 21840, 141.282
 21900, 142.748
 21960, 141.975
 22020, 150.018
 22080, 155.256
 22140, 150.876
 22200, 145.330
 22260, 143.766
 22320, 143.888
 22380, 142.405
 22440, 142.326
 22500, 142.729
 22560, 139.409
 22620, 136.186
 22680, 138.534
 22740, 137.844
 22800, 138.044
 22860, 141.454
 22920, 139.498
 22980, 147.447
 23040, 145.633
 23100, 145.499
 23160, 139.379
 23220, 142.249
 23280, 142.769
 23340, 150.187
 23400, 152.922
 23460, 154.823
 23520, -9999.000
 23580, 161.643
 23640, 156.066
 23700, 154.736
 23760, 151.486
 23820, 149.108
 23880, 143.612
 23940, 147.293
 24000, 141.137
 24060, 143.603
 24120, 148.958
 24180, 142.891
 24240, 144.822
 24300, 145.014
 24360, 150.091
 24420, 140.452
 24480, 136.998
 24540, 135.561
 24600, 135.670
 24660, 134.951
 24720, 131.664
 24780, 132.903
 24840, 131.283
 24900, 131.682
 24960, 130.627
 25020, 129.686
 25080, 130.698
 25140, 136.051
 25200, 141.056
 25260, 144.923
 25320, 147.910
 25380, -9999.000
 25440, 146.202
 25500, 149.868
 25560, 150.326
 25620, 148.794
 25680, 148.647
 25740, 155.913
 25800, 160.298
 25860, 167.877
 25920, 165.077
 25980, 162.775
 26040, 154.971
 26100, 153.656
 26160, 153.385
 26220, 148.443
 26280, 149.409
 26340, 151.883
 26400, 153.191
 26460, 153.540
 26520, 151.036
 26580, 148.884
 26640, 148.836
 26700, 144.943
 26760, 141.424
 26820, 148.739
 26880, 145.209
 26940, 143.814
 27000, 135.189
 27060, 130.289
 27120, 128.712
 27180, 125.889
 27240, 119.954
 27300, 112.854
 27360, 113.610
 27420, 113.275
 27480, 116.238
 27540, 109.605
 27600, 108.231
 27660, 99.651
 27720, 91.945
 27780, 90.309
 27840, 94.908
 27900, 103.796
 27960, 99.794
 28020, 106.238
 28080, 106.748
 28140, 109.314
 28200, 111.180
 28260, 112.424
 28320, 115.466
 28380, 121.291
 28440, 124.361
 28500, 127.216
 28560, 131.715
 28620, 131.368
 28680, 133.900
 28740, 133.141
 28800, 134.033
 28860, 135.840
 28920, 139.190
 28980, 146.202
 29040, -9999.000
 29100, 144.499
 29160, 147.676
 29220, 147.662
 29280, 149.564
 29340, 149.722
 29400, 152.278
 29460, 157.805
 29520, 158.772
 29580, 161.396
 29640, 163.802
 29700, 161.159
 29760, 161.867
 29820, 163.230
 29880, 162.562
 29940, 157.620
 30000, 157.403
 30060, 154.862
 30120, 158.869
 30180, 160.612
 30240, 160.853
 30300, 163.862
 30360, 160.651
 30420, 159.130
 30480, 156.636
 30540, 151.149
 30600, 151.270
 30660, 152.288
 30720, 153.017
 30780, 156.028
 30840, 158.600
 30900, -9999.000
 30960, 156.711
 31020, 155.444
 31080, 155.083
 31140, 154.157
 31200, 158.267
 31260, 163.334
 31320, 162.601
 31380, 161.923
 31440, 161.578
 31500, 162.080
 31560, 161.906
 31620, 157.982
 31680, 153.979
 31740, 156.880
 31800, 158.303
 31860, 156.828
 31920, 151.582
 31980, 149.054
 32040, 143.119
 32100, 137.496
 32160, 132.846
 32220, 132.776
 32280, 130.979
 32340, 131.451
 32400, 128.049
 32460, 120.988
 32520, 123.798
 32580, 119.191
 32640, 117.742
 32700, 118.611
 32760, -9999.000
 32820, 122.528
 32880, 119.423
 32940, 113.785
 33000, 108.176
 33060, 103.165
 33120, 101.196
 33180, 105.496
 33240, 106.065
 33300, 106.132
 33360, 102.704
 33420, 102.331
 33480, 98.569
 33540, 97.348
 33600, 97.760
 33660, 97.331
 33720, 97.408
 33780, 95.102
 33840, 102.400
 33900, 101.329
 33960, 97.908
 34020, 98.624
 34080, 101.201
 34140, 105.827
 34200, 105.966
 34260, 105.582
 34320, 105.793
 34380, 104.454
 34440, 104.044
 34500, 100.989
 34560, 103.830
 34620, 103.434
 34680, 100.370
 34740, 97.876
 34800, 99.066
 34860, 101.421
 34920, 109.122
 34980, 116.282
 35040, 121.012
 35100, 128.030
 35160, 130.521
 35220, 130.664
 35280, 133.724
 35340, 134.789
 35400, 137.174
 35460, 143.748
 35520, 150.078
 35580, 156.947
 35640, 160.507
 35700, 162.673
 35760, 164.709
 35820, 171.112
 35880, 173.632
 35940, 171.168
 36000, 170.245
 36060, 174.916
 36120, 171.114
 36180, 167.878
 36240, 166.232
 36300, 157.308
 36360, 151.649
 36420, 157.410
 36480, 151.009
 36540, 146.952
 36600, 145.866
 36660, 146.608
 36720, 142.129
 36780, 138.286
 36840, 132.748
 36900, 134.838
 36960, 132.505
 37020, 137.394
 37080, 137.127
 37140, 133.508
 37200, 129.745
 37260, 128.009
 37320, 130.289
 37380, 131.007
 37440, 128.832
 37500, 124.356
 37560, 123.003
 37620, 117.526
 37680, 114.923
 37740, 114.634
 37800, 116.434
 37860, 117.872
 37920, 116.745
 37980, 111.423
 38040, 109.701
 38100, 109.004
 38160, 105.500
 38220, 107.161
 38280, 102.393
 38340, 112.240
 38400, 105.324
 38460, 105.588
 38520, 99.204
 38580, 103.635
 38640, 104.902
 38700, 103.238
 38760, 100.202
 38820, 98.495
 38880, 98.701
 38940, 99.437
 39000, 105.135
 39060, 109.734
 39120, 109.617
 39180, 111.449
 39240, 114.938
 39300, 113.823
 39360, 114.448
 39420, 116.567
 39480, 119.513
 39540, 122.097
 39600, 127.425
 39660, 124.237
 39720, 114.002
 39780, 112.815
 39840, 113.248
 39900, 116.100
 39960, 121.130
 40020, 121.235
 40080, 119.015
 40140, -9999.000
 40200, 116.014
 40260, 112.413
 40320, 115.159
 40380, 118.889
 40440, 123.490
 40500, 126.330
 40560, 130.039
 40620, 126.554
 40680, 126.392
 40740, 126.464
 40800, 129.115
 40860, 132.609
 40920, 136.061
 40980, 138.732
 41040, 135.847
 41100, 133.995
 41160, 132.746
 41220, 134.110
 41280, 136.308
 41340, 140.359
 41400, 138.986
 41460, 141.624
 41520, 139.885
 41580, 142.538
 41640, 139.605
 41700, 142.785
 41760, 145.424
 41820, 147.002
 41880, 147.460
 41940, 148.189
 42000, 148.667
 42060, 144.624
 42120, 140.342
 42180, 142.829
 42240, 145.059
 42300, 147.150
 42360, 150.221
 42420, 150.944
 42480, 147.947
 42540, 146.150
 42600, 141.351
 42660, 138.752
 42720, 136.935
 42780, 142.107
 42840, 144.605
 42900, 147.091
 42960, 146.888
 43020, 145.067
 43080, 142.814
 43140, 140.035
 43200, 140.670
 43260, 142.754
 43320, 147.936
 43380, 146.274
 43440, 146.632
 43500, 145.446
 43560, 146.477
 43620, 142.217
 43680, 142.166
 43740, 141.025
 43800, 142.126
 43860, 142.814
 43920, 145.641
 43980, 142.494
 44040, 141.997
 44100, 141.478
 44160, 134.977
 44220, 135.848
 44280, 140.515
 44340, 144.912
 44400, 147.514
 44460, 147.149
 44520, 143.363
 44580, 145.753
 44640, 141.781
 44700, 139.166
 44760, 139.108
 44820, 142.487
 44880, 143.936
 44940, 145.835
 45000, 145.754
 45060, 145.649
 45120, 144.462
 45180, 145.787
 45240, 144.637
 45300, 146.295
 45360, 150.688
 45420, 153.774
 45480, 152.370
 45540, 152.939
 45600, 151.549
 45660, 148.727
 45720, 141.672
 45780, 136.603
 45840, 133.720
 45900, 134.565
 45960, 135.138
 46020, 134.184
 46080, 128.571
 46140, 123.865
 46200, 119.454
 46260, 116.279
 46320, 108.153
 46380, 98.716
 46440, 93.298
 46500, 91.130
 46560, 84.683
 46620, 75.547
 46680, 71.352
 46740, 61.410
 46800, 44.284
 46860, 56.553
 46920, 214.591
 46980, 261.895
 47040, 234.237
 47100, 206.192
 47160, 191.092
 47220, 178.415
 47280, 167.226
 47340, 158.444
 47400, 156.583
 47460, 156.558
 47520, -9999.000
 47580, 194.122
 47640, 184.296
 47700, 173.689
 47760, 166.335
 47820, 157.893
 47880, 151.171
 47940, 151.858
 48000, 148.334
 48060, 143.632
 48120, 142.123
 48180, 139.684
 48240, 136.346
 48300, 132.860
 48360, 132.770
 48420, 134.577
 48480, 135.513
 48540, 138.355
 48600, 133.559
 48660, 122.297
 48720, 120.659
 48780, 118.999
 48840, 117.815
 48900, 121.133
 48960, 128.342
 49020, 127.151
 49080, 131.264
 49140, 133.351
 49200, 134.531
 49260, 137.091
 49320, 141.250
 49380, -9999.000
 49440, 168.993
 49500, 165.226
 49560, 167.823
 49620, 170.093
 49680, 169.918
 49740, 169.415
 49800, 164.224
 49860, 163.231
 49920, 165.389
 49980, 161.499
 50040, 161.054
 50100, 160.461
 50160, 165.690
 50220, 169.059
 50280, 171.367
 50340, 176.146
 50400, 181.889
 50460, 179.552
 50520, 176.106
 50580, 174.995
 50640, 176.257
 50700, 177.708
 50760, 177.143
 50820, 182.992
 50880, 184.189
 50940, 182.646
 51000, 182.084
 51060, 179.933
 51120, 189.706
 51180, 200.730
 51240, -9999.000
 51300, 214.871
 51360, 212.155
 51420, 203.322
 51480, 206.356
 51540, 215.997
 51600, 217.893
 51660, 219.768
 51720, 231.440
 51780, 223.492
 51840, 236.429
 51900, 235.164
 51960, 212.623
 52020, 232.253
 52080, 237.106
 52140, 250.738
 52200, 260.668
 52260, 274.945
 52320, 263.803
 52380, 253.475
 52440, 256.560
 52500, 269.768
 52560, 273.982
 52620, 265.494
 52680, 265.299
 52740, 274.233
 52800, 279.216
 52860, 281.345
 52920, 284.437
 52980, 282.827
 53040, 291.820
 53100, 278.981
 53160, 278.189
 53220, 283.912
 53280, 297.010
 53340, 305.438
 53400, 304.803
 53460, 293.823
 53520, 318.086
 53580, 309.167
 53640, 277.942
 53700, 278.275
 53760, 295.328
 53820, 319.686
 53880, 338.432
 53940, 325.646
 54000, 296.882
 54060, 305.510
 54120, 319.370
 54180, 334.409
 54240, 336.295
 54300, 340.734
 54360, 342.904
 54420, 335.497
 54480, 332.298
 54540, 344.182
 54600, 338.847
 54660, 343.981
 54720, 364.860
 54780, 380.319
 54840, 376.932
 54900, -9999.000
 54960, 345.164
 55020, 341.248
 55080, 337.625
 55140, 344.618
 55200, 347.432
 55260, 353.662
 55320, 365.898
 55380, 374.528
 55440, 383.155
 55500, 386.803
 55560, 388.402
 55620, 388.548
 55680, 394.954
 55740, 393.589
 55800, 394.509
 55860, 401.435
 55920, 400.971
 55980, 407.907
 56040, 410.715
 56100, 412.952
 56160, 418.303
 56220, 411.353
 56280, 407.464
 56340, 407.245
 56400, 410.846
 56460, 408.951
 56520, 402.277
 56580, 401.397
 56640, 415.097
 56700, 420.112
 56760, -9999.000
 56820, 399.179
 56880, 411.900
 56940, 419.572
 57000, 412.423
 57060, 390.161
 57120, 393.413
 57180, 413.327
 57240, 429.128
 57300, 435.737
 57360, 429.958
 57420, 433.178
 57480, 445.284
 57540, 469.471
 57600, 496.783
 57660, 492.408
 57720, 493.845
 57780, 512.883
 57840, 537.530
 57900, 558.870
 57960, 577.681
 58020, 576.921
 58080, 561.216
 58140, 555.145
 58200, 548.967
 58260, 562.559
 58320, 593.781
 58380, 604.288
 58440, 597.978
 58500, 602.039
 58560, 611.925
 58620, -9999.000
 58680, 512.578
 58740, 514.901
 58800, 503.555
 58860, 545.853
 58920, 573.072
 58980, 580.180
 59040, 587.937
 59100, 617.020
 59160, 639.131
 59220, 654.584
 59280, 669.140
 59340, 669.513
 59400, 681.074
 59460, 720.888
 59520, 706.588
 59580, 730.558
 59640, 743.453
 59700, 751.299
 59760, 736.910
 59820, 748.932
 59880, 763.811
 59940, 752.151
 60000, 754.871
 60060, 748.296
 60120, 713.924
 60180, 693.768
 60240, 690.427
 60300, 692.122
 60360, 704.603
 60420, 706.000
 60480, 653.882
 60540, 688.921
 60600, 701.989
 60660, 703.261
 60720, 725.949
 60780, 749.513
 60840, 752.039
 60900, 771.395
 60960, 775.018
 61020, 775.676
 61080, 770.335
 61140, 806.066
 61200, 826.950
 61260, 850.715
 61320, 856.827
 61380, 852.179
 61440, 848.309
 61500, 885.362
 61560, 914.689
 61620, 922.887
 61680, 958.216
 61740, 969.042
 61800, 990.839
 61860, 1008.922
 61920, 972.594
 61980, 990.087
 62040, 979.093
 62100, 1003.433
 62160, 990.410
 62220, 945.552
 62280, 957.768
 62340, 841.627
 62400, 881.841
 62460, 935.469
 62520, 974.374
 62580, 1008.639
 62640, 1069.054
 62700, 1050.949
 62760, 1078.810
 62820, 1102.707
 62880, 1110.967
 62940, 1125.633
 63000, 1117.611
 63060, 1097.462
 63120, 1086.441
 63180, 1085.562
 63240, 1086.497
 63300, 1034.177
 63360, 996.350
 63420, 979.665
 63480, 971.642
 63540, 980.550
 63600, 941.263
 63660, 919.984
 63720, 897.948
 63780, 881.766
 63840, 877.650
 63900, 893.780
 63960, 926.442
 64020, 950.614
 64080, 960.564
 64140, 964.853
 64200, 945.510
 64260, 1003.862
 64320, 1042.516
 64380, 1022.296
 64440, 1023.188
 64500, 1021.609
 64560, 1028.448
 64620, 1035.588
 64680, 1052.752
 64740, 1063.537
 64800, 1049.600
 64860, 1056.103
 64920, 1083.679
 64980, 1067.037
 65040, 1014.415
 65100, 1016.333
 65160, 1062.927
 65220, 1098.743
 65280, 1103.653
 65340, 1138.781
 65400, 1179.688
 65460, 1171.866
 65520, 1145.312
 65580, 1162.070
 65640, 1104.850
 65700, 1096.052
 65760, 1066.893
 65820, 1077.207
 65880, 1072.120
 65940, 1053.485
 66000, -9999.000
 66060, 1079.820
 66120, 1212.710
 66180, 1232.229
 66240, 1286.337
 66300, 1342.521
 66360, 1384.997
 66420, 1425.644
 66480, 1479.074
 66540, 1471.735
 66600, 1516.848
 66660, 1506.573
 66720, 1536.610
 66780, 1590.848
 66840, 1580.809
 66900, 1566.016
 66960, 1500.477
 67020, 1436.239
 67080, 1544.867
 67140, 1574.934
 67200, 1530.095
 67260, 1549.276
 67320, 1581.874
 67380, 1593.701
 67440, 1653.797
 67500, 1670.018
 67560, 1703.396
 67620, 1741.141
 67680, 1747.714
 67740, 1763.639
 67800, 1752.360
 67860, -9999.000
 67920, 1541.812
 67980, 1595.680
 68040, 1660.992
 68100, 1637.643
 68160, 1628.101
 68220, 1630.043
 68280, 1525.799
 68340, 1592.159
 68400, 1617.511
 68460, 1656.811
 68520, 1660.396
 68580, 1551.324
 68640, 1424.008
 68700, 1274.567
 68760, 1150.206
 68820, 1051.899
 68880, 1019.747
 68940, 1001.483
 69000, 999.564
 69060, 975.682
 69120, 970.285
 69180, 963.050
 69240, 963.289
 69300, 923.272
 69360, 979.184
 69420, 1017.872
 69480, 1036.959
 69540, 1099.244
 69600, 1139.132
 69660, 1175.636
 69720, -9999.000
 69780, 1077.544
 69840, 1093.439
 69900, 1092.067
 69960, 1117.093
 70020, 1098.458
 70080, 1123.634
 70140, 1179.553
 70200, 1227.568
 70260, 1259.273
 70320, 1269.778
 70380, 1174.288
 70440, 1197.345
 70500, 1203.246
 70560, 1173.419
 70620, 1087.253
 70680, 1059.757
 70740, 1028.212
 70800, 998.231
 70860, 1011.340
 70920, 1018.108
 70980, 1019.948
 71040, 1027.889
 71100, 1057.732
 71160, 1078.594
 71220, 1056.991
 71280, 1028.002
 71340, 967.824
 71400, 1001.877
 71460, 1046.459
 71520, 1042.346
 71580, 946.981
 71640, 958.066
 71700, 1011.526
 71760, 1074.072
 71820, 1126.445
 71880, 1109.421
 71940, 1139.185
 72000, 1205.018
 72060, 1244.575
 72120, 1277.149
 72180, 1285.254
 72240, 1249.066
 72300, 1197.436
 72360, 1252.195
 72420, 1238.356
 72480, 1289.749
 72540, 1332.829
 72600, 1322.477
 72660, 1305.125
 72720, 1271.806
 72780, 1273.919
 72840, 1249.512
 72900, 1222.566
 72960, 1223.308
 73020, 1216.551
 73080, 1279.496
 73140, 1266.826
 73200, 1238.249
 73260, 1214.223
 73320, 1253.408
 73380, -9999.000
 73440, 1086.643
 73500, 1131.201
 73560, 1129.683
 73620, 1110.601
 73680, 1140.562
 73740, 1075.314
 73800, 1131.738
 73860, 1170.138
 73920, 1226.539
 73980, 1207.484
 74040, 1219.762
 74100, 1272.078
 74160, 1282.606
 74220, 1269.377
 74280, 1280.758
 74340, 1317.577
 74400, 1340.808
 74460, 1380.515
 74520, 1371.756
 74580, 1302.034
 74640, 1208.211
 74700, 1143.317
 74760, 1116.301
 74820, 1062.905
 74880, 1083.005
 74940, 1036.762
 75000, 1021.132
 75060, 1031.643
 75120, 1041.674
 75180, 1033.196
 75240, -9999.000
 75300, 923.049
 75360, 923.257
 75420, 932.643
 75480, 964.740
 75540, 991.884
 75600, 981.486
 75660, 954.250
 75720, 932.083
 75780, 900.431
 75840, 869.843
 75900, 846.756
 75960, 787.310
 76020, 821.047
 76080, 848.677
 76140, 833.773
 76200, 875.214
 76260, 895.043
 76320, 894.947
 76380, 961.434
 76440, 996.838
 76500, 970.756
 76560, 967.999
 76620, 957.898
 76680, 919.097
 76740, 899.563
 76800, 903.307
 76860, 902.504
 76920, 871.329
 76980, 915.784
 77040, 912.410
 77100, -9999.000
 77160, 780.154
 77220, 807.835
 77280, 900.167
 77340, 1005.476
 77400, 985.445
 77460, 1024.275
 77520, 1071.115
 77580, 1086.926
 77640, 1030.879
 77700, 1033.217
 77760, 1031.958
 77820, 990.352
 77880, 935.679
 77940, 892.520
 78000, 887.709
 78060, 865.332
 78120, 864.926
 78180, 867.621
 78240, 872.924
 78300, 842.578
 78360, 797.873
 78420, 785.793
 78480, 719.375
 78540, 722.047
 78600, 771.108
 78660, 816.235
 78720, 825.226
 78780, 865.443
 78840, 993.701
 78900, 1074.415
 78960, 951.090
 79020, 968.259
 79080, 954.518
 79140, 933.902
 79200, 904.599
 79260, 875.983
 79320, 850.987
 79380, 851.097
 79440, 840.487
 79500, 852.621
 79560, 812.277
 79620, 781.765
 79680, 778.920
 79740, -9999.000
 79800, -9999.000
 79860, -9999.000
 79920, -9999.000
 79980, -9999.000
 80040, -9999.000
 80100, -9999.000
 80160, -9999.000
 80220, -9999.000
 80280, -9999.000
 80340, -9999.000
 80400, -9999.000
 80460, -9999.000
 80520, -9999.000
 80580, -9999.000
 80640, -9999.000
 80700, -9999.000
 80760, -9999.000
 80820, -9999.000
 80880, -9999.000
 80940, -9999.000
 81000, -9999.000
 81060, -9999.000
 81120, -9999.000
 81180, -9999.000
 81240, -9999.000
 81300, -9999.000
 81360, -9999.000
 81420, -9999.000
 81480, -9999.000
 81540, -9999.000
 81600, -9999.000
 81660, -9999.000
 81720, -9999.000
 81780, -9999.000
 81840, -9999.000
 81900, -9999.000
 81960, -9999.000
 82020, -9999.000
 82080, -9999.000
 82140, -9999.000
 82200, -9999.000
 82260, -9999.000
 82320, -9999.000
 82380, -9999.000
 82440, -9999.000
 82500, -9999.000
 82560, -9999.000
 82620, -9999.000
 82680, -9999.000
 82740, -9999.000
 82800, -9999.000
 82860, -9999.000
 82920, -9999.000
 82980, -9999.000
 83040, -9999.000
 83100, -9999.000
 83160, -9999.000
 83220, -9999.000
 83280, -9999.000
 83340, -9999.000
 83400, -9999.000
 83460, -9999.000
 83520, -9999.000
 83580, -9999.000
 83640, -9999.000
 83700, -9999.000
 83760, -9999.000
 83820, -9999.000
 83880, -9999.000
 83940, -9999.000
 84000, -9999.000
 84060, -9999.000
 84120, -9999.000
 84180, -9999.000
 84240, -9999.000
 84300, -9999.000
 84360, -9999.000
 84420, -9999.000
 84480, -9999.000
 84540, -9999.000
 84600, -9999.000
 84660, -9999.000
 84720, -9999.000
 84780, -9999.000
 84840, -9999.000
 84900, -9999.000
 84960, -9999.000
 85020, -9999.000
 85080, -9999.000
 85140, -9999.000
 85200, -9999.000
 85260, -9999.000
 85320, -9999.000
 85380, -9999.000
 85440, -9999.000
 85500, -9999.000
 85560, -9999.000
 85620, -9999.000
 85680, -9999.000
 85740, -9999.000
 85800, -9999.000
 85860, -9999.000
 85920, -9999.000
 85980, -9999.000
 86040, -9999.000
 86100, -9999.000
 86160, -9999.000
 86220, -9999.000
 86280, -9999.000
 86340, -9999.000
