33, 1001
Michael A Robinson, Chris Jernigan, Subi Thakali
NOAA ESRL Chemical Sciences Laboratory and CIRES, U. of Colorado
NOAA Iodide CIMS Instrument
USOS
1, 1
2024, 08, 05, 2024, 08, 05
1
starttime_UTC, seconds_past_midnight, seconds_of_day_since_00:00:00_UTC
1
1
-9999
N2O5_NOAACIMS, pptv, Gas_N2O5_InSitu_S_AVMR, 
0
18
PI_CONTACT_INFO: 325 Broadway, R/CSD 7, Boulder, Colorado 80305; michael.a.robinson@noaa.gov; chris.jernigan@noaa.gov;
PLATFORM: NOAA CSL Mobile Lab
LOCATION: SLC, Utah
ASSOCIATED_DATA: 1Hz data also available on request.
INSTRUMENT_INFO: NOAA I- ToF CIMS
DATA_INFO: All data in parts per trillion by volume (pptv). 1 Hz data is available upon request.
UNCERTAINTY: TBD
ULOD_FLAG: -7777
ULOD_VALUE: N/A
LLOD_FLAG: -8888
LLOD_VALUE: N/A
DM_CONTACT_INFO: Nathan Howard; nathan.h.howard@noaa.gov
PROJECT_INFO: USOS, summer 2024. https://csl.noaa.gov/groups/csl7/measurements/2024usos/
STIPULATIONS_ON_USE: Users are strongly encouraged to contact the PI for proper data usage.
OTHER_COMMENTS: 
REVISION: RA
RA: Preliminary Data; For in-field use only
starttime_UTC, N2O5_NOAACIMS
     0, -9999.000
    60, -9999.000
   120, -9999.000
   180, -9999.000
   240, -9999.000
   300, -9999.000
   360, -9999.000
   420, -9999.000
   480, -9999.000
   540, -9999.000
   600, -9999.000
   660, -9999.000
   720, -9999.000
   780, -9999.000
   840, -9999.000
   900, -9999.000
   960, -9999.000
  1020, -9999.000
  1080, -9999.000
  1140, -9999.000
  1200, -9999.000
  1260, -9999.000
  1320, -9999.000
  1380, -9999.000
  1440, -9999.000
  1500, -9999.000
  1560, -9999.000
  1620, -9999.000
  1680, -9999.000
  1740, -9999.000
  1800, -9999.000
  1860, -9999.000
  1920, -9999.000
  1980, -9999.000
  2040, -9999.000
  2100, -9999.000
  2160, -9999.000
  2220, -9999.000
  2280, -9999.000
  2340, -9999.000
  2400, -9999.000
  2460, -9999.000
  2520, -9999.000
  2580, -9999.000
  2640, -9999.000
  2700, -9999.000
  2760, -9999.000
  2820, -9999.000
  2880, -9999.000
  2940, -9999.000
  3000, -9999.000
  3060, -9999.000
  3120, -9999.000
  3180, -9999.000
  3240, -9999.000
  3300, -9999.000
  3360, -9999.000
  3420, -9999.000
  3480, -9999.000
  3540, -9999.000
  3600, -9999.000
  3660, -9999.000
  3720, -9999.000
  3780, -9999.000
  3840, -9999.000
  3900, -9999.000
  3960, -9999.000
  4020, -9999.000
  4080, -9999.000
  4140, -9999.000
  4200, -9999.000
  4260, -9999.000
  4320, -9999.000
  4380, -9999.000
  4440, -9999.000
  4500, -9999.000
  4560, -9999.000
  4620, -9999.000
  4680, -9999.000
  4740, -9999.000
  4800, -9999.000
  4860, -9999.000
  4920, -9999.000
  4980, -9999.000
  5040, -9999.000
  5100, -9999.000
  5160, -9999.000
  5220, -9999.000
  5280, -9999.000
  5340, -9999.000
  5400, -9999.000
  5460, -9999.000
  5520, -9999.000
  5580, -9999.000
  5640, -9999.000
  5700,  0.667
  5760,  0.743
  5820,  0.566
  5880,  0.604
  5940,  0.601
  6000,  0.601
  6060,  0.640
  6120,  0.696
  6180,  0.656
  6240,  0.667
  6300,  0.811
  6360,  0.952
  6420,  0.848
  6480,  0.824
  6540,  0.905
  6600,  0.773
  6660,  0.608
  6720,  0.828
  6780,  0.910
  6840,  0.668
  6900,  0.882
  6960,  1.100
  7020,  0.989
  7080,  0.709
  7140,  1.012
  7200,  1.009
  7260,  1.415
  7320,  1.038
  7380,  1.298
  7440,  1.187
  7500,  1.548
  7560,  1.311
  7620,  1.050
  7680,  1.296
  7740,  1.285
  7800,  1.610
  7860,  1.844
  7920,  2.039
  7980,  1.748
  8040,  1.184
  8100,  1.505
  8160,  1.352
  8220,  1.298
  8280,  1.532
  8340,  1.574
  8400,  1.841
  8460,  2.501
  8520,  2.221
  8580,  2.555
  8640,  2.703
  8700,  2.214
  8760,  2.408
  8820,  1.673
  8880,  2.401
  8940,  2.409
  9000,  2.100
  9060,  2.157
  9120,  2.658
  9180,  2.210
  9240,  2.299
  9300,  2.493
  9360,  2.844
  9420,  2.737
  9480,  2.027
  9540,  1.777
  9600,  2.231
  9660,  1.984
  9720,  1.738
  9780,  2.337
  9840,  2.625
  9900,  2.477
  9960,  2.260
 10020,  2.534
 10080,  2.348
 10140,  2.810
 10200,  1.741
 10260,  1.291
 10320,  1.291
 10380,  1.182
 10440,  1.618
 10500,  1.617
 10560, -9999.000
 10620,  1.628
 10680,  1.567
 10740,  1.224
 10800,  0.824
 10860,  1.193
 10920,  1.284
 10980,  1.175
 11040,  1.634
 11100,  1.113
 11160,  1.180
 11220,  1.365
 11280,  0.991
 11340,  0.962
 11400,  0.985
 11460,  0.897
 11520,  0.955
 11580,  0.594
 11640,  0.755
 11700,  0.622
 11760,  0.835
 11820,  0.704
 11880,  0.619
 11940,  0.722
 12000,  0.729
 12060,  0.513
 12120,  0.916
 12180,  0.439
 12240,  0.386
 12300,  0.345
 12360,  0.424
 12420,  0.308
 12480,  0.606
 12540,  0.701
 12600,  0.435
 12660,  0.517
 12720,  0.521
 12780,  0.522
 12840,  0.493
 12900,  0.413
 12960,  0.521
 13020,  0.447
 13080,  0.490
 13140,  0.455
 13200,  0.419
 13260,  0.702
 13320,  0.722
 13380,  0.503
 13440,  0.446
 13500,  0.546
 13560,  0.684
 13620,  0.415
 13680,  0.430
 13740,  0.579
 13800,  0.545
 13860,  0.506
 13920,  0.457
 13980,  0.548
 14040,  0.587
 14100,  0.623
 14160,  0.541
 14220,  0.505
 14280, -9999.000
 14340,  0.479
 14400,  0.609
 14460,  0.528
 14520,  0.439
 14580,  0.390
 14640,  0.591
 14700,  0.589
 14760,  0.472
 14820,  0.592
 14880,  0.590
 14940,  0.724
 15000,  0.441
 15060,  0.523
 15120,  0.714
 15180,  0.827
 15240,  0.582
 15300,  0.628
 15360,  0.729
 15420,  0.814
 15480,  0.575
 15540,  0.607
 15600,  0.512
 15660,  0.738
 15720,  0.695
 15780,  0.695
 15840,  0.758
 15900,  0.974
 15960,  0.884
 16020,  0.799
 16080,  0.837
 16140,  1.092
 16200,  1.197
 16260,  1.454
 16320,  1.345
 16380,  1.400
 16440,  1.037
 16500,  0.812
 16560,  1.435
 16620,  0.775
 16680,  1.020
 16740,  0.943
 16800,  0.742
 16860,  0.497
 16920,  0.535
 16980,  0.692
 17040,  0.640
 17100,  0.497
 17160,  0.366
 17220,  0.641
 17280,  0.630
 17340,  0.643
 17400,  0.669
 17460,  0.841
 17520,  0.856
 17580,  0.660
 17640,  0.637
 17700,  0.829
 17760,  0.684
 17820,  0.795
 17880,  0.946
 17940,  0.979
 18000,  1.389
 18060,  1.505
 18120,  0.914
 18180,  0.629
 18240,  0.959
 18300,  1.067
 18360,  0.957
 18420,  1.070
 18480,  0.976
 18540,  0.855
 18600,  0.640
 18660,  0.633
 18720,  0.709
 18780,  0.673
 18840,  0.753
 18900,  0.702
 18960,  0.760
 19020,  0.825
 19080,  0.677
 19140,  0.825
 19200,  0.766
 19260,  0.688
 19320,  0.877
 19380,  0.927
 19440,  0.763
 19500,  0.670
 19560,  0.652
 19620,  0.995
 19680,  0.898
 19740,  0.560
 19800,  0.995
 19860,  0.830
 19920,  0.804
 19980,  0.760
 20040,  0.830
 20100,  0.765
 20160,  0.796
 20220,  1.511
 20280,  1.306
 20340,  0.936
 20400,  1.042
 20460,  1.144
 20520,  0.595
 20580,  0.775
 20640,  1.032
 20700,  0.797
 20760,  0.624
 20820,  0.901
 20880,  0.883
 20940,  0.954
 21000,  1.121
 21060,  1.086
 21120,  1.060
 21180,  1.161
 21240,  1.202
 21300,  1.180
 21360,  0.886
 21420,  1.021
 21480,  1.001
 21540,  0.721
 21600,  0.952
 21660, -9999.000
 21720,  1.162
 21780,  1.040
 21840,  1.141
 21900,  1.884
 21960,  3.210
 22020,  1.721
 22080,  2.050
 22140,  2.688
 22200,  1.463
 22260,  2.311
 22320,  1.745
 22380,  1.429
 22440,  1.826
 22500,  2.326
 22560,  1.703
 22620,  2.215
 22680,  1.581
 22740,  1.962
 22800,  2.019
 22860,  1.067
 22920,  1.170
 22980,  1.493
 23040,  1.375
 23100,  1.053
 23160,  0.958
 23220,  1.214
 23280,  1.064
 23340,  1.187
 23400,  1.022
 23460,  0.867
 23520, -9999.000
 23580,  1.520
 23640,  2.151
 23700,  3.368
 23760,  3.512
 23820,  3.272
 23880,  1.793
 23940,  4.318
 24000,  2.460
 24060,  2.351
 24120,  3.149
 24180,  2.111
 24240,  2.545
 24300,  3.478
 24360,  3.880
 24420,  3.325
 24480,  2.855
 24540,  6.193
 24600,  8.742
 24660,  3.009
 24720,  1.710
 24780,  1.390
 24840,  1.060
 24900,  0.949
 24960,  0.788
 25020,  0.635
 25080,  0.592
 25140,  0.805
 25200,  0.620
 25260,  0.636
 25320,  0.781
 25380, -9999.000
 25440,  0.728
 25500,  0.872
 25560,  1.058
 25620,  0.765
 25680,  0.913
 25740,  0.657
 25800,  0.793
 25860,  0.633
 25920,  0.703
 25980,  0.958
 26040,  0.720
 26100,  0.981
 26160,  0.961
 26220,  0.952
 26280,  0.751
 26340,  1.147
 26400,  1.145
 26460,  1.426
 26520,  1.607
 26580,  3.078
 26640,  4.124
 26700,  2.514
 26760,  2.287
 26820,  1.134
 26880,  1.376
 26940,  1.500
 27000,  1.776
 27060,  1.547
 27120,  1.636
 27180,  1.863
 27240,  4.076
 27300,  1.449
 27360,  1.516
 27420,  1.631
 27480,  2.300
 27540,  2.647
 27600,  2.100
 27660,  1.322
 27720,  1.469
 27780,  1.839
 27840,  1.735
 27900,  1.524
 27960,  1.900
 28020,  1.758
 28080,  1.388
 28140,  1.831
 28200,  1.987
 28260,  1.789
 28320,  1.972
 28380,  2.346
 28440,  2.245
 28500,  2.313
 28560,  2.303
 28620,  2.415
 28680,  2.289
 28740,  2.306
 28800,  2.242
 28860,  2.378
 28920,  2.268
 28980,  2.361
 29040, -9999.000
 29100,  2.874
 29160,  2.793
 29220,  3.111
 29280,  3.463
 29340,  4.753
 29400,  8.370
 29460,  7.890
 29520,  8.770
 29580,  7.276
 29640,  8.092
 29700,  7.032
 29760,  6.329
 29820,  5.584
 29880,  5.590
 29940,  4.539
 30000,  4.552
 30060,  3.799
 30120,  3.348
 30180,  2.720
 30240,  3.094
 30300,  2.573
 30360,  2.461
 30420,  2.192
 30480,  2.577
 30540,  2.577
 30600,  2.518
 30660,  2.572
 30720,  2.585
 30780,  2.400
 30840,  2.435
 30900, -9999.000
 30960,  3.343
 31020,  4.281
 31080,  2.773
 31140,  4.047
 31200,  5.023
 31260,  4.714
 31320,  3.996
 31380,  3.416
 31440,  2.937
 31500,  3.258
 31560,  2.926
 31620,  2.877
 31680,  2.645
 31740,  4.247
 31800,  6.881
 31860,  7.105
 31920,  5.973
 31980,  9.638
 32040, 10.546
 32100, 10.599
 32160, 12.027
 32220, 14.371
 32280, 11.495
 32340, 14.477
 32400, 17.892
 32460, 87.024
 32520, 154.158
 32580, 175.535
 32640, 138.163
 32700, 71.777
 32760, -9999.000
 32820, 13.722
 32880, 13.465
 32940, 17.053
 33000, 22.733
 33060, 57.080
 33120, 85.915
 33180, 145.039
 33240, 82.308
 33300, 33.751
 33360, 28.379
 33420, 27.787
 33480, 20.659
 33540, 17.664
 33600, 18.470
 33660, 18.678
 33720, 23.883
 33780, 53.377
 33840, 191.110
 33900, 152.768
 33960, 93.351
 34020, 95.955
 34080, 141.760
 34140, 161.270
 34200, 93.495
 34260, 92.191
 34320, 93.288
 34380, 89.352
 34440, 83.077
 34500, 52.759
 34560, 41.426
 34620,  9.357
 34680,  7.857
 34740,  4.957
 34800,  3.039
 34860,  3.191
 34920,  4.707
 34980,  3.062
 35040,  3.150
 35100,  4.552
 35160,  3.755
 35220,  2.674
 35280,  2.721
 35340,  2.372
 35400,  2.688
 35460,  2.320
 35520,  2.380
 35580,  2.532
 35640,  2.498
 35700,  2.228
 35760,  2.696
 35820,  6.034
 35880,  8.575
 35940,  8.708
 36000, 12.050
 36060, 11.222
 36120, 11.997
 36180, 24.571
 36240, 29.969
 36300, 25.655
 36360, 19.389
 36420, 22.090
 36480, 12.295
 36540, 16.024
 36600, 16.211
 36660, 11.590
 36720, 12.581
 36780, 12.666
 36840, 23.075
 36900, 20.174
 36960, 35.147
 37020, 14.343
 37080, 11.409
 37140, 15.150
 37200, 16.920
 37260, 17.494
 37320, 11.852
 37380, 10.075
 37440,  8.848
 37500, 11.648
 37560, 11.701
 37620, 13.194
 37680, 10.265
 37740,  8.208
 37800,  8.960
 37860,  7.541
 37920, 10.160
 37980, 16.034
 38040, 13.552
 38100, 11.058
 38160, 11.169
 38220, 15.230
 38280, 18.002
 38340, 18.141
 38400, 22.196
 38460, 19.039
 38520, 19.095
 38580, 21.345
 38640, 16.348
 38700, 13.382
 38760, 10.547
 38820,  6.475
 38880,  5.885
 38940,  4.318
 39000,  6.078
 39060,  6.292
 39120,  4.526
 39180,  7.379
 39240,  8.728
 39300,  9.745
 39360, 12.578
 39420, 13.382
 39480, 15.656
 39540, 10.620
 39600, 11.028
 39660,  9.483
 39720,  6.155
 39780,  6.702
 39840,  5.127
 39900,  6.606
 39960,  7.046
 40020,  4.634
 40080,  4.423
 40140, -9999.000
 40200,  3.147
 40260,  2.977
 40320,  2.762
 40380,  2.609
 40440,  2.619
 40500,  2.067
 40560,  2.238
 40620,  2.329
 40680,  2.116
 40740,  2.580
 40800,  2.567
 40860,  2.469
 40920,  2.072
 40980,  2.517
 41040,  2.299
 41100,  2.928
 41160,  2.387
 41220,  2.453
 41280,  2.210
 41340,  2.678
 41400,  2.722
 41460,  2.647
 41520,  2.689
 41580,  2.449
 41640,  2.528
 41700,  2.376
 41760,  2.748
 41820,  2.741
 41880,  2.931
 41940,  2.556
 42000,  2.302
 42060,  2.744
 42120,  2.811
 42180,  2.939
 42240,  2.806
 42300,  2.576
 42360,  2.510
 42420,  2.517
 42480,  2.455
 42540,  2.566
 42600,  2.504
 42660,  2.926
 42720,  2.644
 42780,  2.582
 42840,  2.593
 42900,  2.462
 42960,  2.627
 43020,  2.789
 43080,  2.613
 43140,  2.701
 43200,  2.577
 43260,  2.668
 43320,  2.444
 43380,  2.676
 43440,  2.674
 43500,  2.669
 43560,  2.948
 43620,  2.958
 43680,  2.651
 43740,  2.634
 43800,  2.838
 43860,  3.735
 43920,  2.467
 43980,  2.924
 44040,  2.600
 44100,  2.612
 44160,  3.044
 44220,  2.704
 44280,  2.840
 44340,  2.485
 44400,  2.839
 44460,  2.836
 44520,  2.649
 44580,  2.426
 44640,  2.565
 44700,  2.607
 44760,  2.851
 44820,  2.682
 44880,  2.558
 44940,  2.240
 45000,  2.362
 45060,  2.643
 45120,  2.299
 45180,  2.624
 45240,  2.349
 45300,  2.546
 45360,  2.404
 45420,  2.741
 45480,  2.551
 45540,  2.341
 45600,  2.664
 45660,  2.979
 45720,  2.503
 45780,  2.282
 45840,  2.572
 45900,  2.199
 45960,  2.597
 46020,  4.327
 46080,  5.269
 46140,  7.877
 46200,  9.648
 46260, 10.341
 46320,  9.933
 46380, 10.006
 46440,  9.635
 46500,  9.933
 46560, 10.191
 46620,  9.472
 46680,  8.587
 46740,  8.774
 46800, -9999.000
 46860, -9999.000
 46920, -9999.000
 46980, -9999.000
 47040, -9999.000
 47100, -9999.000
 47160, -9999.000
 47220, -9999.000
 47280, -9999.000
 47340, -9999.000
 47400, -9999.000
 47460, -9999.000
 47520, -9999.000
 47580, -9999.000
 47640, -9999.000
 47700, -9999.000
 47760, -9999.000
 47820, -9999.000
 47880, -9999.000
 47940, -9999.000
 48000, -9999.000
 48060, -9999.000
 48120, -9999.000
 48180, -9999.000
 48240, -9999.000
 48300, -9999.000
 48360, -9999.000
 48420, -9999.000
 48480, -9999.000
 48540, -9999.000
 48600, -9999.000
 48660, -9999.000
 48720, -9999.000
 48780, -9999.000
 48840, -9999.000
 48900, -9999.000
 48960, -9999.000
 49020, -9999.000
 49080, -9999.000
 49140, -9999.000
 49200, -9999.000
 49260, -9999.000
 49320, -9999.000
 49380, -9999.000
 49440, -9999.000
 49500, -9999.000
 49560, -9999.000
 49620, -9999.000
 49680, -9999.000
 49740, -9999.000
 49800, -9999.000
 49860, -9999.000
 49920, -9999.000
 49980, -9999.000
 50040, -9999.000
 50100, -9999.000
 50160, -9999.000
 50220, -9999.000
 50280, -9999.000
 50340, -9999.000
 50400, -9999.000
 50460, -9999.000
 50520, -9999.000
 50580, -9999.000
 50640, -9999.000
 50700, -9999.000
 50760, -9999.000
 50820, -9999.000
 50880, -9999.000
 50940, -9999.000
 51000, -9999.000
 51060, -9999.000
 51120, -9999.000
 51180, -9999.000
 51240, -9999.000
 51300, -9999.000
 51360, -9999.000
 51420, -9999.000
 51480, -9999.000
 51540, -9999.000
 51600, -9999.000
 51660, -9999.000
 51720, -9999.000
 51780, -9999.000
 51840, -9999.000
 51900, -9999.000
 51960, -9999.000
 52020, -9999.000
 52080, -9999.000
 52140, -9999.000
 52200, -9999.000
 52260, -9999.000
 52320, -9999.000
 52380, -9999.000
 52440, -9999.000
 52500, -9999.000
 52560, -9999.000
 52620, -9999.000
 52680, -9999.000
 52740, -9999.000
 52800, -9999.000
 52860, -9999.000
 52920, -9999.000
 52980, -9999.000
 53040, -9999.000
 53100, -9999.000
 53160, -9999.000
 53220, -9999.000
 53280, -9999.000
 53340, -9999.000
 53400, -9999.000
 53460, -9999.000
 53520, -9999.000
 53580, -9999.000
 53640, -9999.000
 53700, -9999.000
 53760, -9999.000
 53820, -9999.000
 53880, -9999.000
 53940, -9999.000
 54000, -9999.000
 54060, -9999.000
 54120, -9999.000
 54180, -9999.000
 54240, -9999.000
 54300, -9999.000
 54360, -9999.000
 54420, -9999.000
 54480, -9999.000
 54540, -9999.000
 54600, -9999.000
 54660, -9999.000
 54720, -9999.000
 54780, -9999.000
 54840, -9999.000
 54900, -9999.000
 54960, -9999.000
 55020, -9999.000
 55080, -9999.000
 55140, -9999.000
 55200, -9999.000
 55260, -9999.000
 55320, -9999.000
 55380, -9999.000
 55440, -9999.000
 55500, -9999.000
 55560, -9999.000
 55620, -9999.000
 55680, -9999.000
 55740, -9999.000
 55800, -9999.000
 55860, -9999.000
 55920, -9999.000
 55980, -9999.000
 56040, -9999.000
 56100, -9999.000
 56160, -9999.000
 56220, -9999.000
 56280, -9999.000
 56340, -9999.000
 56400, -9999.000
 56460, -9999.000
 56520, -9999.000
 56580, -9999.000
 56640, -9999.000
 56700, -9999.000
 56760, -9999.000
 56820, -9999.000
 56880, -9999.000
 56940, -9999.000
 57000, -9999.000
 57060, -9999.000
 57120, -9999.000
 57180, -9999.000
 57240, -9999.000
 57300, -9999.000
 57360, -9999.000
 57420, -9999.000
 57480, -9999.000
 57540, -9999.000
 57600, -9999.000
 57660, -9999.000
 57720, -9999.000
 57780, -9999.000
 57840, -9999.000
 57900, -9999.000
 57960, -9999.000
 58020, -9999.000
 58080, -9999.000
 58140, -9999.000
 58200, -9999.000
 58260, -9999.000
 58320, -9999.000
 58380, -9999.000
 58440, -9999.000
 58500, -9999.000
 58560, -9999.000
 58620, -9999.000
 58680, -9999.000
 58740, -9999.000
 58800, -9999.000
 58860, -9999.000
 58920, -9999.000
 58980, -9999.000
 59040, -9999.000
 59100, -9999.000
 59160, -9999.000
 59220, -9999.000
 59280, -9999.000
 59340, -9999.000
 59400, -9999.000
 59460, -9999.000
 59520, -9999.000
 59580, -9999.000
 59640, -9999.000
 59700, -9999.000
 59760, -9999.000
 59820, -9999.000
 59880, -9999.000
 59940, -9999.000
 60000, -9999.000
 60060, -9999.000
 60120, -9999.000
 60180, -9999.000
 60240, -9999.000
 60300, -9999.000
 60360, -9999.000
 60420, -9999.000
 60480, -9999.000
 60540, -9999.000
 60600, -9999.000
 60660, -9999.000
 60720, -9999.000
 60780, -9999.000
 60840, -9999.000
 60900, -9999.000
 60960, -9999.000
 61020, -9999.000
 61080, -9999.000
 61140, -9999.000
 61200, -9999.000
 61260, -9999.000
 61320, -9999.000
 61380, -9999.000
 61440, -9999.000
 61500, -9999.000
 61560, -9999.000
 61620, -9999.000
 61680, -9999.000
 61740, -9999.000
 61800, -9999.000
 61860, -9999.000
 61920, -9999.000
 61980, -9999.000
 62040, -9999.000
 62100, -9999.000
 62160, -9999.000
 62220, -9999.000
 62280, -9999.000
 62340, -9999.000
 62400, -9999.000
 62460, -9999.000
 62520, -9999.000
 62580, -9999.000
 62640, -9999.000
 62700, -9999.000
 62760, -9999.000
 62820, -9999.000
 62880, -9999.000
 62940, -9999.000
 63000, -9999.000
 63060, -9999.000
 63120, -9999.000
 63180, -9999.000
 63240, -9999.000
 63300, -9999.000
 63360, -9999.000
 63420, -9999.000
 63480, -9999.000
 63540, -9999.000
 63600, -9999.000
 63660, -9999.000
 63720, -9999.000
 63780, -9999.000
 63840, -9999.000
 63900, -9999.000
 63960, -9999.000
 64020, -9999.000
 64080, -9999.000
 64140, -9999.000
 64200, -9999.000
 64260, -9999.000
 64320, -9999.000
 64380, -9999.000
 64440, -9999.000
 64500, -9999.000
 64560, -9999.000
 64620, -9999.000
 64680, -9999.000
 64740, -9999.000
 64800, -9999.000
 64860, -9999.000
 64920, -9999.000
 64980, -9999.000
 65040, -9999.000
 65100, -9999.000
 65160, -9999.000
 65220, -9999.000
 65280, -9999.000
 65340, -9999.000
 65400, -9999.000
 65460, -9999.000
 65520, -9999.000
 65580, -9999.000
 65640, -9999.000
 65700, -9999.000
 65760, -9999.000
 65820, -9999.000
 65880, -9999.000
 65940, -9999.000
 66000, -9999.000
 66060, -9999.000
 66120, -9999.000
 66180, -9999.000
 66240, -9999.000
 66300, -9999.000
 66360, -9999.000
 66420, -9999.000
 66480, -9999.000
 66540, -9999.000
 66600, -9999.000
 66660, -9999.000
 66720, -9999.000
 66780, -9999.000
 66840, -9999.000
 66900, -9999.000
 66960, -9999.000
 67020, -9999.000
 67080, -9999.000
 67140, -9999.000
 67200, -9999.000
 67260, -9999.000
 67320, -9999.000
 67380, -9999.000
 67440, -9999.000
 67500, -9999.000
 67560, -9999.000
 67620, -9999.000
 67680, -9999.000
 67740, -9999.000
 67800, -9999.000
 67860, -9999.000
 67920, -9999.000
 67980, -9999.000
 68040, -9999.000
 68100, -9999.000
 68160, -9999.000
 68220, -9999.000
 68280, -9999.000
 68340, -9999.000
 68400, -9999.000
 68460, -9999.000
 68520, -9999.000
 68580, -9999.000
 68640, -9999.000
 68700, -9999.000
 68760, -9999.000
 68820, -9999.000
 68880, -9999.000
 68940, -9999.000
 69000, -9999.000
 69060, -9999.000
 69120, -9999.000
 69180, -9999.000
 69240, -9999.000
 69300, -9999.000
 69360, -9999.000
 69420, -9999.000
 69480, -9999.000
 69540, -9999.000
 69600, -9999.000
 69660, -9999.000
 69720, -9999.000
 69780, -9999.000
 69840, -9999.000
 69900, -9999.000
 69960, -9999.000
 70020, -9999.000
 70080, -9999.000
 70140, -9999.000
 70200, -9999.000
 70260, -9999.000
 70320, -9999.000
 70380, -9999.000
 70440, -9999.000
 70500, -9999.000
 70560, -9999.000
 70620, -9999.000
 70680, -9999.000
 70740, -9999.000
 70800, -9999.000
 70860, -9999.000
 70920, -9999.000
 70980, -9999.000
 71040, -9999.000
 71100, -9999.000
 71160, -9999.000
 71220, -9999.000
 71280, -9999.000
 71340, -9999.000
 71400, -9999.000
 71460, -9999.000
 71520, -9999.000
 71580, -9999.000
 71640, -9999.000
 71700, -9999.000
 71760, -9999.000
 71820, -9999.000
 71880, -9999.000
 71940, -9999.000
 72000, -9999.000
 72060, -9999.000
 72120, -9999.000
 72180, -9999.000
 72240, -9999.000
 72300, -9999.000
 72360, -9999.000
 72420, -9999.000
 72480, -9999.000
 72540, -9999.000
 72600, -9999.000
 72660, -9999.000
 72720, -9999.000
 72780, -9999.000
 72840, -9999.000
 72900, -9999.000
 72960, -9999.000
 73020, -9999.000
 73080, -9999.000
 73140, -9999.000
 73200, -9999.000
 73260, -9999.000
 73320, -9999.000
 73380, -9999.000
 73440, -9999.000
 73500, -9999.000
 73560, -9999.000
 73620, -9999.000
 73680, -9999.000
 73740, -9999.000
 73800, -9999.000
 73860, -9999.000
 73920, -9999.000
 73980, -9999.000
 74040, -9999.000
 74100, -9999.000
 74160, -9999.000
 74220, -9999.000
 74280, -9999.000
 74340, -9999.000
 74400, -9999.000
 74460, -9999.000
 74520, -9999.000
 74580, -9999.000
 74640, -9999.000
 74700, -9999.000
 74760, -9999.000
 74820, -9999.000
 74880, -9999.000
 74940, -9999.000
 75000, -9999.000
 75060, -9999.000
 75120, -9999.000
 75180, -9999.000
 75240, -9999.000
 75300, -9999.000
 75360, -9999.000
 75420, -9999.000
 75480, -9999.000
 75540, -9999.000
 75600, -9999.000
 75660, -9999.000
 75720, -9999.000
 75780, -9999.000
 75840, -9999.000
 75900, -9999.000
 75960, -9999.000
 76020, -9999.000
 76080, -9999.000
 76140, -9999.000
 76200, -9999.000
 76260, -9999.000
 76320, -9999.000
 76380, -9999.000
 76440, -9999.000
 76500, -9999.000
 76560, -9999.000
 76620, -9999.000
 76680, -9999.000
 76740, -9999.000
 76800, -9999.000
 76860, -9999.000
 76920, -9999.000
 76980, -9999.000
 77040, -9999.000
 77100, -9999.000
 77160, -9999.000
 77220, -9999.000
 77280, -9999.000
 77340, -9999.000
 77400, -9999.000
 77460, -9999.000
 77520, -9999.000
 77580, -9999.000
 77640, -9999.000
 77700, -9999.000
 77760, -9999.000
 77820, -9999.000
 77880, -9999.000
 77940, -9999.000
 78000, -9999.000
 78060, -9999.000
 78120, -9999.000
 78180, -9999.000
 78240, -9999.000
 78300, -9999.000
 78360, -9999.000
 78420, -9999.000
 78480, -9999.000
 78540, -9999.000
 78600, -9999.000
 78660, -9999.000
 78720, -9999.000
 78780, -9999.000
 78840, -9999.000
 78900, -9999.000
 78960, -9999.000
 79020, -9999.000
 79080, -9999.000
 79140, -9999.000
 79200, -9999.000
 79260, -9999.000
 79320, -9999.000
 79380, -9999.000
 79440, -9999.000
 79500, -9999.000
 79560, -9999.000
 79620, -9999.000
 79680, -9999.000
 79740, -9999.000
 79800, -9999.000
 79860, -9999.000
 79920, -9999.000
 79980, -9999.000
 80040, -9999.000
 80100, -9999.000
 80160, -9999.000
 80220, -9999.000
 80280, -9999.000
 80340, -9999.000
 80400, -9999.000
 80460, -9999.000
 80520, -9999.000
 80580, -9999.000
 80640, -9999.000
 80700, -9999.000
 80760, -9999.000
 80820, -9999.000
 80880, -9999.000
 80940, -9999.000
 81000, -9999.000
 81060, -9999.000
 81120, -9999.000
 81180, -9999.000
 81240, -9999.000
 81300, -9999.000
 81360, -9999.000
 81420, -9999.000
 81480, -9999.000
 81540, -9999.000
 81600, -9999.000
 81660, -9999.000
 81720, -9999.000
 81780, -9999.000
 81840, -9999.000
 81900, -9999.000
 81960, -9999.000
 82020, -9999.000
 82080, -9999.000
 82140, -9999.000
 82200, -9999.000
 82260, -9999.000
 82320, -9999.000
 82380, -9999.000
 82440, -9999.000
 82500, -9999.000
 82560, -9999.000
 82620, -9999.000
 82680, -9999.000
 82740, -9999.000
 82800, -9999.000
 82860, -9999.000
 82920, -9999.000
 82980, -9999.000
 83040, -9999.000
 83100, -9999.000
 83160, -9999.000
 83220, -9999.000
 83280, -9999.000
 83340, -9999.000
 83400, -9999.000
 83460, -9999.000
 83520, -9999.000
 83580, -9999.000
 83640, -9999.000
 83700, -9999.000
 83760, -9999.000
 83820, -9999.000
 83880, -9999.000
 83940, -9999.000
 84000, -9999.000
 84060, -9999.000
 84120, -9999.000
 84180, -9999.000
 84240, -9999.000
 84300, -9999.000
 84360, -9999.000
 84420, -9999.000
 84480, -9999.000
 84540, -9999.000
 84600, -9999.000
 84660, -9999.000
 84720, -9999.000
 84780, -9999.000
 84840, -9999.000
 84900, -9999.000
 84960, -9999.000
 85020, -9999.000
 85080, -9999.000
 85140, -9999.000
 85200, -9999.000
 85260, -9999.000
 85320, -9999.000
 85380, -9999.000
 85440, -9999.000
 85500, -9999.000
 85560, -9999.000
 85620, -9999.000
 85680, -9999.000
 85740, -9999.000
 85800, -9999.000
 85860, -9999.000
 85920, -9999.000
 85980, -9999.000
 86040, -9999.000
 86100, -9999.000
 86160, -9999.000
 86220, -9999.000
 86280, -9999.000
 86340, -9999.000
