34, 1001
Michael A Robinson, Chris Jernigan, Subi Thakali
NOAA ESRL Chemical Sciences Laboratory and CIRES, U. of Colorado
NOAA Iodide CIMS Instrument
USOS
1, 1
2024, 07, 18, 2024, 07, 20
0
starttime_UTC, seconds_past_midnight, seconds_of_day_since_00:00:00_UTC
1
1
-9999
N2O5_NOAACIMS, pptv, Gas_N2O5_InSitu_S_AVMR
1
N/A
18
PI_CONTACT_INFO: 325 Broadway, R/CSD 7, Boulder, Colorado 80305; michael.a.robinson@noaa.gov; chris.jernigan@noaa.gov;
PLATFORM: NOAA CSL Mobile Lab
LOCATION: SLC, Utah
ASSOCIATED_DATA: 1Hz data also available on request.
INSTRUMENT_INFO: NOAA I- ToF CIMS
DATA_INFO: Units: pptv
UNCERTAINTY: tbd
ULOD_FLAG: -7777
ULOD_VALUE: N/A
LLOD_FLAG: -8888
LLOD_VALUE: N/A
DM_CONTACT_INFO: Nathan Howard; nathan.h.howard@noaa.gov
PROJECT_INFO: USOS, summer 2024. https://csl.noaa.gov/groups/csl7/measurements/2024usos/
STIPULATIONS_ON_USE: only the USOS science team is allowed to use this data
OTHER_COMMENTS: Field data; Data are averaged to 1 minute intervals. Stationary data collected from a 10 ft tower on top of the mobile lab
REVISION: RA
RA: Preliminary Data; For in-field use only
starttime_UTC, N2O5_NOAACIMS
0,0.287
60,0.291
120,0.194
180,0.430
240,0.211
300,0.255
360,0.212
420,0.205
480,0.295
540,0.398
600,0.248
660,0.168
720,0.303
780,0.239
840,0.167
900,0.245
960,0.120
1020,0.313
1080,0.271
1140,0.272
1200,0.214
1260,0.223
1320,0.246
1380,0.196
1440,0.235
1500,0.332
1560,0.207
1620,0.270
1680,0.406
1740,0.249
1800,0.272
1860,0.287
1920,0.285
1980,0.376
2040,0.286
2100,0.278
2160,0.325
2220,0.180
2280,0.323
2340,0.348
2400,0.246
2460,0.325
2520,0.271
2580,0.233
2640,0.318
2700,0.200
2760,0.149
2820,0.306
2880,0.357
2940,0.230
3000,0.243
3060,0.277
3120,0.223
3180,0.400
3240,0.352
3300,0.147
3360,0.224
3420,0.321
3480,0.278
3540,0.215
3600,0.131
3660,0.061
3720,0.104
3780,0.098
3840,0.028
3900,0.226
3960,0.231
4020,0.134
4080,0.315
4140,0.172
4200,0.192
4260,0.204
4320,0.225
4380,0.272
4440,0.254
4500,0.354
4560,0.289
4620,0.399
4680,0.511
4740,0.526
4800,0.616
4860,0.641
4920,0.539
4980,0.599
5040,0.502
5100,0.554
5160,0.554
5220,0.613
5280,0.643
5340,0.684
5400,0.738
5460,0.810
5520,0.840
5580,0.873
5640,0.863
5700,0.843
5760,0.808
5820,0.761
5880,0.830
5940,0.779
6000,0.883
6060,1.106
6120,0.759
6180,0.769
6240,0.681
6300,0.678
6360,0.733
6420,0.774
6480,0.922
6540,0.798
6600,0.883
6660,0.858
6720,0.983
6780,0.946
6840,1.092
6900,0.906
6960,0.868
7020,0.681
7080,0.512
7140,0.610
7200,0.716
7260,0.852
7320,0.524
7380,0.675
7440,0.954
7500,0.720
7560,0.735
7620,0.938
7680,0.765
7740,0.847
7800,0.793
7860,0.745
7920,0.514
7980,0.901
8040,0.851
8100,0.777
8160,0.910
8220,0.782
8280,1.284
8340,1.181
8400,0.822
8460,0.674
8520,0.803
8580,0.988
8640,0.814
8700,0.727
8760,0.849
8820,0.840
8880,1.122
8940,1.096
9000,1.098
9060,1.269
9120,1.715
9180,1.251
9240,1.129
9300,1.104
9360,1.055
9420,1.431
9480,1.196
9540,1.473
9600,2.021
9660,2.501
9720,1.842
9780,1.722
9840,1.266
9900,1.399
9960,1.025
10020,0.781
10080,0.921
10140,1.096
10200,1.236
10260,1.138
10320,1.236
10380,1.374
10440,1.328
10500,0.924
10560,0.967
10620,0.969
10680,1.020
10740,1.015
10800,1.221
10860,1.040
10920,0.924
10980,1.187
11040,1.584
11100,1.697
11160,2.140
11220,1.770
11280,2.424
11340,2.933
11400,1.393
11460,1.710
11520,1.675
11580,1.426
11640,0.964
11700,1.214
11760,1.598
11820,1.105
11880,1.169
11940,0.682
12000,0.896
12060,0.811
12120,0.734
12180,0.871
12240,1.066
12300,0.824
12360,0.952
12420,0.960
12480,1.068
12540,0.969
12600,1.028
12660,1.340
12720,1.554
12780,1.437
12840,1.423
12900,1.639
12960,1.468
13020,1.865
13080,2.041
13140,1.871
13200,3.282
13260,9.348
13320,12.224
13380,6.491
13440,3.496
13500,1.709
13560,1.619
13620,1.322
13680,1.501
13740,1.941
13800,1.890
13860,1.306
13920,1.278
13980,0.897
14040,1.379
14100,1.735
14160,1.634
14220,1.533
14280,1.704
14340,1.629
14400,1.259
14460,1.636
14520,1.315
14580,1.678
14640,1.931
14700,2.853
14760,2.746
14820,2.920
14880,3.250
14940,3.827
15000,4.486
15060,5.292
15120,5.224
15180,5.334
15240,5.182
15300,6.788
15360,8.725
15420,5.987
15480,5.831
15540,6.773
15600,7.873
15660,7.061
15720,6.874
15780,6.306
15840,4.138
15900,4.552
15960,5.148
16020,4.785
16080,5.160
16140,5.989
16200,7.112
16260,8.588
16320,7.568
16380,8.759
16440,6.765
16500,6.103
16560,6.596
16620,8.124
16680,5.707
16740,4.764
16800,5.045
16860,5.019
16920,6.137
16980,7.790
17040,9.030
17100,10.840
17160,11.959
17220,9.492
17280,9.631
17340,4.409
17400,4.820
17460,10.327
17520,9.067
17580,9.098
17640,10.447
17700,5.608
17760,4.107
17820,7.742
17880,4.184
17940,7.004
18000,7.345
18060,2.126
18120,1.507
18180,1.255
18240,1.436
18300,1.167
18360,1.625
18420,1.233
18480,1.107
18540,1.214
18600,1.336
18660,1.612
18720,1.902
18780,1.789
18840,1.418
18900,1.980
18960,2.111
19020,1.990
19080,2.082
19140,1.591
19200,2.113
19260,1.739
19320,0.776
19380,0.722
19440,1.477
19500,1.455
19560,1.293
19620,1.072
19680,1.070
19740,1.822
19800,2.188
19860,1.449
19920,1.296
19980,2.400
20040,3.871
20100,2.111
20160,1.805
20220,1.292
20280,1.033
20340,1.219
20400,1.319
20460,1.194
20520,1.434
20580,1.869
20640,1.693
20700,1.933
20760,2.036
20820,2.067
20880,0.863
20940,1.049
21000,1.105
21060,0.601
21120,0.489
21180,0.484
21240,0.696
21300,0.538
21360,0.497
21420,0.463
21480,0.532
21540,0.354
21600,0.557
21660,0.522
21720,0.448
21780,0.597
21840,0.473
21900,0.557
21960,0.458
22020,0.486
22080,0.481
22140,0.510
22200,0.594
22260,0.573
22320,0.623
22380,0.568
22440,0.537
22500,0.688
22560,1.894
22620,1.902
22680,0.631
22740,1.274
22800,1.005
22860,0.986
22920,1.261
22980,2.250
23040,2.577
23100,2.038
23160,1.136
23220,0.972
23280,0.911
23340,0.825
23400,0.896
23460,0.732
23520,0.828
23580,0.851
23640,1.054
23700,1.418
23760,1.394
23820,1.390
23880,1.733
23940,1.432
24000,1.345
24060,1.071
24120,1.020
24180,1.115
24240,1.343
24300,1.399
24360,2.217
24420,2.340
24480,2.694
24540,-9999.000
24600,1.529
24660,1.421
24720,1.478
24780,1.242
24840,1.511
24900,1.749
24960,2.166
25020,2.290
25080,1.538
25140,1.404
25200,2.557
25260,3.509
25320,3.363
25380,2.198
25440,1.837
25500,1.618
25560,1.210
25620,1.414
25680,1.470
25740,1.360
25800,1.316
25860,1.299
25920,1.543
25980,1.502
26040,1.246
26100,1.384
26160,1.298
26220,1.378
26280,1.238
26340,1.456
26400,1.126
26460,1.424
26520,1.654
26580,1.621
26640,1.275
26700,1.426
26760,1.257
26820,1.380
26880,1.257
26940,1.325
27000,1.597
27060,1.405
27120,1.161
27180,1.009
27240,1.001
27300,1.065
27360,1.594
27420,1.094
27480,1.083
27540,0.930
27600,1.166
27660,1.013
27720,1.064
27780,1.256
27840,0.899
27900,1.074
27960,0.986
28020,1.087
28080,0.995
28140,0.918
28200,1.087
28260,0.825
28320,1.306
28380,1.028
28440,0.923
28500,1.049
28560,0.849
28620,0.923
28680,0.953
28740,1.027
28800,1.117
28860,0.958
28920,1.387
28980,1.278
29040,0.897
29100,0.748
29160,0.806
29220,0.691
29280,0.759
29340,0.815
29400,0.763
29460,0.786
29520,0.758
29580,0.847
29640,0.952
29700,0.892
29760,0.747
29820,0.953
29880,0.924
29940,0.738
30000,0.578
30060,0.683
30120,0.571
30180,0.768
30240,0.848
30300,0.860
30360,0.771
30420,0.779
30480,0.649
30540,0.567
30600,0.893
30660,1.361
30720,1.381
30780,1.099
30840,2.982
30900,3.591
30960,1.607
31020,1.419
31080,1.010
31140,0.930
31200,0.825
31260,0.769
31320,0.717
31380,0.714
31440,0.672
31500,0.687
31560,0.638
31620,0.513
31680,0.694
31740,0.632
31800,0.536
31860,0.516
31920,0.597
31980,0.497
32040,0.647
32100,0.529
32160,0.763
32220,0.633
32280,0.571
32340,0.634
32400,0.696
32460,0.607
32520,0.694
32580,0.916
32640,1.810
32700,1.973
32760,2.545
32820,3.234
32880,3.644
32940,4.085
33000,1.888
33060,2.169
33120,1.667
33180,0.893
33240,0.726
33300,0.572
33360,0.627
33420,0.524
33480,0.607
33540,0.670
33600,0.481
33660,0.513
33720,0.551
33780,0.605
33840,0.597
33900,0.598
33960,0.609
34020,0.537
34080,0.443
34140,0.606
34200,0.559
34260,0.492
34320,0.472
34380,0.570
34440,0.439
34500,0.480
34560,0.575
34620,0.610
34680,0.679
34740,0.557
34800,0.535
34860,0.394
34920,0.645
34980,0.494
35040,0.508
35100,0.354
35160,0.497
35220,0.483
35280,0.417
35340,0.496
35400,0.473
35460,0.572
35520,0.520
35580,0.505
35640,0.757
35700,0.456
35760,0.608
35820,0.436
35880,0.496
35940,0.485
36000,0.551
36060,0.538
36120,0.571
36180,0.557
36240,0.573
36300,0.648
36360,0.699
36420,0.731
36480,0.656
36540,0.629
36600,0.547
36660,0.497
36720,0.614
36780,0.589
36840,0.559
36900,0.676
36960,0.525
37020,0.579
37080,0.633
37140,0.408
37200,0.538
37260,0.469
37320,0.531
37380,0.495
37440,0.547
37500,0.484
37560,0.649
37620,0.628
37680,0.652
37740,0.731
37800,0.825
37860,0.938
37920,0.936
37980,0.734
38040,0.798
38100,0.748
38160,0.865
38220,0.904
38280,0.951
38340,0.951
38400,2.160
38460,1.740
38520,2.083
38580,2.460
38640,5.329
38700,4.931
38760,2.957
38820,2.426
38880,2.430
38940,1.106
39000,1.052
39060,1.022
39120,0.839
39180,0.628
39240,0.743
39300,0.674
39360,0.686
39420,0.966
39480,0.769
39540,0.893
39600,0.873
39660,0.963
39720,0.846
39780,0.784
39840,0.918
39900,0.890
39960,0.873
40020,0.760
40080,0.888
40140,1.042
40200,0.942
40260,0.866
40320,0.847
40380,0.727
40440,0.644
40500,0.854
40560,0.934
40620,0.852
40680,1.068
40740,1.101
40800,1.007
40860,0.986
40920,1.681
40980,2.484
41040,8.970
41100,15.888
41160,20.088
41220,16.279
41280,14.133
41340,13.019
41400,11.775
41460,13.325
41520,12.796
41580,16.412
41640,19.751
41700,20.092
41760,20.286
41820,14.756
41880,13.820
41940,17.503
42000,19.060
42060,23.090
42120,35.300
42180,28.453
42240,27.645
42300,28.587
42360,29.686
42420,20.647
42480,24.749
42540,23.172
42600,20.461
42660,18.164
42720,25.919
42780,23.807
42840,24.657
42900,25.199
42960,22.275
43020,-9999.000
43080,23.781
43140,22.048
43200,18.648
43260,19.834
43320,17.573
43380,13.155
43440,11.535
43500,14.083
43560,19.975
43620,18.493
43680,16.091
43740,14.532
43800,9.888
43860,5.421
43920,4.664
43980,4.373
44040,4.237
44100,2.740
44160,2.881
44220,2.531
44280,2.363
44340,2.282
44400,2.697
44460,2.595
44520,3.291
44580,3.461
44640,3.352
44700,4.007
44760,3.514
44820,3.682
44880,2.696
44940,3.755
45000,5.122
45060,5.462
45120,5.543
45180,5.700
45240,5.709
45300,9.997
45360,10.325
45420,6.482
45480,5.018
45540,6.889
45600,6.977
45660,6.041
45720,5.326
45780,4.413
45840,3.412
45900,2.861
45960,2.677
46020,2.412
46080,2.958
46140,2.659
46200,2.874
46260,2.926
46320,3.356
46380,2.954
46440,2.693
46500,3.965
46560,4.730
46620,3.639
46680,3.746
46740,4.349
46800,4.448
46860,2.897
46920,1.291
46980,1.171
47040,1.317
47100,1.169
47160,1.284
47220,1.163
47280,1.110
47340,0.947
47400,0.953
47460,0.863
47520,0.938
47580,0.877
47640,0.782
47700,0.819
47760,0.891
47820,1.163
47880,1.152
47940,1.272
48000,1.365
48060,1.330
48120,1.473
48180,1.676
48240,1.545
48300,1.689
48360,1.440
48420,1.425
48480,1.535
48540,1.209
48600,1.226
48660,1.613
48720,1.643
48780,1.296
48840,1.548
48900,1.467
48960,1.563
49020,1.357
49080,1.315
49140,1.103
49200,1.126
49260,0.900
49320,0.948
49380,0.840
49440,0.798
49500,0.923
49560,0.788
49620,0.632
49680,0.556
49740,0.831
49800,0.655
49860,0.628
49920,0.522
49980,0.474
50040,0.608
50100,0.572
50160,0.498
50220,0.593
50280,0.519
50340,0.369
50400,0.370
50460,0.378
50520,0.543
50580,0.442
50640,0.307
50700,0.564
50760,0.362
50820,0.351
50880,0.449
50940,0.497
51000,0.558
51060,0.491
51120,0.410
51180,0.456
51240,0.448
51300,0.397
51360,0.424
51420,0.472
51480,0.507
51540,0.479
51600,0.518
51660,0.299
51720,0.390
51780,0.605
51840,0.465
51900,0.552
51960,0.451
52020,0.537
52080,0.717
52140,0.426
52200,0.535
52260,0.430
52320,0.674
52380,0.573
52440,0.564
52500,0.530
52560,0.558
52620,0.521
52680,0.515
52740,0.473
52800,0.492
52860,0.486
52920,0.571
52980,0.461
53040,0.516
53100,0.434
53160,0.557
53220,0.501
53280,0.587
53340,0.410
53400,0.600
53460,0.743
53520,0.671
53580,0.647
53640,0.807
53700,0.777
53760,0.797
53820,0.883
53880,0.868
53940,1.028
54000,1.162
54060,0.983
54120,0.612
54180,1.112
54240,0.998
54300,1.253
54360,1.313
54420,1.055
54480,1.418
54540,1.112
54600,1.231
54660,1.324
54720,1.024
54780,1.066
54840,0.909
54900,1.186
54960,1.096
55020,1.136
55080,0.911
55140,1.187
55200,0.954
55260,0.716
55320,0.908
55380,0.813
55440,1.157
55500,1.098
55560,1.258
55620,1.368
55680,1.481
55740,1.870
55800,2.591
55860,-9999.000
55920,-9999.000
55980,-9999.000
56040,-9999.000
56100,-9999.000
56160,-9999.000
56220,1.337
56280,2.008
56340,1.575
56400,1.270
56460,1.646
56520,1.486
56580,1.579
56640,2.160
56700,1.573
56760,1.817
56820,1.310
56880,1.347
56940,1.439
57000,1.374
57060,0.895
57120,1.409
57180,1.580
57240,1.419
57300,1.559
57360,1.368
57420,1.713
57480,1.525
57540,1.520
57600,1.515
57660,1.692
57720,1.660
57780,1.038
57840,1.442
57900,1.418
57960,1.179
58020,1.519
58080,1.349
58140,0.956
58200,1.147
58260,1.306
58320,1.034
58380,1.007
58440,0.782
58500,1.083
58560,1.267
58620,1.015
58680,0.943
58740,0.939
58800,1.379
58860,1.016
58920,0.958
58980,0.538
59040,0.796
59100,0.706
59160,0.962
59220,1.118
59280,0.975
59340,0.780
59400,0.692
59460,0.871
59520,0.887
59580,0.929
59640,1.092
59700,1.087
59760,1.084
59820,0.986
59880,0.978
59940,0.632
60000,0.588
60060,0.462
60120,0.434
60180,0.353
60240,0.686
60300,0.982
60360,0.098
60420,0.458
60480,0.346
60540,0.468
60600,0.602
60660,0.473
60720,0.430
60780,0.512
60840,0.541
60900,0.557
60960,0.745
61020,0.845
61080,0.719
61140,0.751
61200,0.700
61260,0.767
61320,0.723
61380,0.663
61440,0.929
61500,0.594
61560,0.569
61620,0.452
61680,0.740
61740,0.552
61800,0.749
61860,0.530
61920,0.583
61980,0.484
62040,0.503
62100,0.483
62160,0.646
62220,0.436
62280,0.537
62340,0.367
62400,0.510
62460,0.389
62520,0.415
62580,0.590
62640,0.707
62700,0.547
62760,0.677
62820,0.803
62880,0.524
62940,0.659
63000,0.653
63060,0.637
63120,0.542
63180,0.592
63240,0.709
63300,0.606
63360,0.892
63420,0.609
63480,0.624
63540,0.560
63600,0.676
63660,0.545
63720,0.722
63780,0.553
63840,0.546
63900,0.459
63960,0.575
64020,0.502
64080,0.352
64140,0.590
64200,0.541
64260,0.770
64320,0.518
64380,0.841
64440,0.721
64500,0.708
64560,0.712
64620,0.673
64680,0.808
64740,0.734
64800,0.935
64860,0.763
64920,0.410
64980,0.652
65040,0.798
65100,0.952
65160,0.786
65220,0.905
65280,0.810
65340,0.903
65400,0.825
65460,0.882
65520,1.089
65580,0.988
65640,1.052
65700,0.898
65760,0.867
65820,0.918
65880,0.793
65940,0.826
66000,0.640
66060,0.902
66120,0.814
66180,0.523
66240,0.482
66300,0.477
66360,0.452
66420,0.632
66480,0.730
66540,0.481
66600,0.529
66660,0.612
66720,0.526
66780,0.563
66840,0.557
66900,0.903
66960,0.490
67020,0.750
67080,0.671
67140,0.935
67200,0.799
67260,0.632
67320,0.750
67380,-9999.000
67440,-9999.000
67500,-9999.000
67560,-9999.000
67620,-9999.000
67680,-9999.000
67740,-9999.000
67800,-9999.000
67860,-9999.000
67920,-9999.000
67980,-9999.000
68040,-9999.000
68100,-9999.000
68160,-9999.000
68220,-9999.000
68280,-9999.000
68340,-9999.000
68400,-9999.000
68460,-9999.000
68520,-9999.000
68580,-9999.000
68640,-9999.000
68700,-9999.000
68760,-9999.000
68820,-9999.000
68880,-9999.000
68940,-9999.000
69000,-9999.000
69060,-9999.000
69120,-9999.000
69180,-9999.000
69240,-9999.000
69300,-9999.000
69360,-9999.000
69420,-9999.000
69480,-9999.000
69540,-9999.000
69600,-9999.000
69660,-9999.000
69720,-9999.000
69780,-9999.000
69840,-9999.000
69900,-9999.000
69960,-9999.000
70020,-9999.000
70080,-9999.000
70140,-9999.000
70200,-9999.000
70260,-9999.000
70320,-9999.000
70380,-9999.000
70440,-9999.000
70500,-9999.000
70560,-9999.000
70620,-9999.000
70680,-9999.000
70740,-9999.000
70800,-9999.000
70860,-9999.000
70920,-9999.000
70980,-9999.000
71040,-9999.000
71100,-9999.000
71160,-9999.000
71220,-9999.000
71280,-9999.000
71340,-9999.000
71400,-9999.000
71460,-9999.000
71520,-9999.000
71580,-9999.000
71640,-9999.000
71700,-9999.000
71760,-9999.000
71820,-9999.000
71880,-9999.000
71940,-9999.000
72000,-9999.000
72060,-9999.000
72120,-9999.000
72180,-9999.000
72240,-9999.000
72300,-9999.000
72360,-9999.000
72420,-9999.000
72480,-9999.000
72540,-9999.000
72600,-9999.000
72660,-9999.000
72720,-9999.000
72780,-9999.000
72840,-9999.000
72900,-9999.000
72960,-9999.000
73020,-9999.000
73080,-9999.000
73140,-9999.000
73200,-9999.000
73260,-9999.000
73320,-9999.000
73380,-9999.000
73440,-9999.000
73500,-9999.000
73560,-9999.000
73620,-9999.000
73680,-9999.000
73740,-9999.000
73800,-9999.000
73860,-9999.000
73920,-9999.000
73980,-9999.000
74040,-9999.000
74100,-9999.000
74160,-9999.000
74220,-9999.000
74280,-9999.000
74340,-9999.000
74400,-9999.000
74460,-9999.000
74520,-9999.000
74580,-9999.000
74640,-9999.000
74700,-9999.000
74760,-9999.000
74820,-9999.000
74880,-9999.000
74940,-9999.000
75000,-9999.000
75060,-9999.000
75120,-9999.000
75180,-9999.000
75240,-9999.000
75300,-9999.000
75360,-9999.000
75420,-9999.000
75480,-9999.000
75540,-9999.000
75600,-9999.000
75660,-9999.000
75720,-9999.000
75780,-9999.000
75840,-9999.000
75900,-9999.000
75960,-9999.000
76020,-9999.000
76080,-9999.000
76140,-9999.000
76200,-9999.000
76260,-9999.000
76320,-9999.000
76380,-9999.000
76440,-9999.000
76500,-9999.000
76560,-9999.000
76620,-9999.000
76680,-9999.000
76740,-9999.000
76800,-9999.000
76860,-9999.000
76920,-9999.000
76980,-9999.000
77040,-9999.000
77100,-9999.000
77160,-9999.000
77220,-9999.000
77280,-9999.000
77340,-9999.000
77400,-9999.000
77460,-9999.000
77520,-9999.000
77580,-9999.000
77640,-9999.000
77700,-9999.000
77760,-9999.000
77820,-9999.000
77880,-9999.000
77940,-9999.000
78000,-9999.000
78060,-9999.000
78120,-9999.000
78180,-9999.000
78240,-9999.000
78300,-9999.000
78360,-9999.000
78420,-9999.000
78480,-9999.000
78540,-9999.000
78600,-9999.000
78660,-9999.000
78720,-9999.000
78780,-9999.000
78840,-9999.000
78900,-9999.000
78960,-9999.000
79020,-9999.000
79080,-9999.000
79140,-9999.000
79200,-9999.000
79260,-9999.000
79320,-9999.000
79380,-9999.000
79440,-9999.000
79500,-9999.000
79560,-9999.000
79620,-9999.000
79680,-9999.000
79740,-9999.000
79800,-9999.000
79860,-9999.000
79920,-9999.000
79980,-9999.000
80040,-9999.000
80100,-9999.000
80160,-9999.000
80220,-9999.000
80280,-9999.000
80340,-9999.000
80400,-9999.000
80460,-9999.000
80520,-9999.000
80580,-9999.000
80640,-9999.000
80700,-9999.000
80760,-9999.000
80820,-9999.000
80880,-9999.000
80940,-9999.000
81000,-9999.000
81060,-9999.000
81120,-9999.000
81180,-9999.000
81240,-9999.000
81300,-9999.000
81360,-9999.000
81420,-9999.000
81480,-9999.000
81540,-9999.000
81600,-9999.000
81660,-9999.000
81720,-9999.000
81780,-9999.000
81840,-9999.000
81900,-9999.000
81960,-9999.000
82020,-9999.000
82080,-9999.000
82140,-9999.000
82200,-9999.000
82260,-9999.000
82320,-9999.000
82380,-9999.000
82440,-9999.000
82500,-9999.000
82560,-9999.000
82620,-9999.000
82680,-9999.000
82740,-9999.000
82800,-9999.000
82860,-9999.000
82920,-9999.000
82980,-9999.000
83040,-9999.000
83100,-9999.000
83160,-9999.000
83220,-9999.000
83280,-9999.000
83340,-9999.000
83400,-9999.000
83460,-9999.000
83520,-9999.000
83580,-9999.000
83640,-9999.000
83700,-9999.000
83760,-9999.000
83820,-9999.000
83880,-9999.000
83940,-9999.000
84000,-9999.000
84060,-9999.000
84120,-9999.000
84180,-9999.000
84240,-9999.000
84300,-9999.000
84360,-9999.000
84420,-9999.000
84480,-9999.000
84540,-9999.000
84600,-9999.000
84660,-9999.000
84720,-9999.000
84780,-9999.000
84840,-9999.000
84900,-9999.000
84960,-9999.000
85020,-9999.000
85080,-9999.000
85140,-9999.000
85200,-9999.000
85260,-9999.000
85320,-9999.000
85380,-9999.000
85440,-9999.000
85500,-9999.000
85560,-9999.000
85620,-9999.000
85680,-9999.000
85740,-9999.000
85800,-9999.000
85860,-9999.000
85920,-9999.000
85980,-9999.000
86040,-9999.000
86100,-9999.000
86160,-9999.000
86220,-9999.000
86280,-9999.000
86340,-9999.000
