34, 1001
Michael A Robinson, Chris Jernigan, Subi Thakali
NOAA ESRL Chemical Sciences Laboratory and CIRES, U. of Colorado
NOAA Iodide CIMS Instrument
USOS
1, 1
2024, 07, 18, 2024, 07, 20
0
starttime_UTC, seconds_past_midnight, seconds_of_day_since_00:00:00_UTC
1
1
-9999
HNO3_NOAACIMS, pptv, Gas_HNO3_InSitu_S_AVMR
1
N/A
18
PI_CONTACT_INFO: 325 Broadway, R/CSD 7, Boulder, Colorado 80305; michael.a.robinson@noaa.gov; chris.jernigan@noaa.gov;
PLATFORM: NOAA CSL Mobile Lab
LOCATION: SLC, Utah
ASSOCIATED_DATA: 1Hz data also available on request.
INSTRUMENT_INFO: NOAA I- ToF CIMS
DATA_INFO: Units: pptv
UNCERTAINTY: tbd
ULOD_FLAG: -7777
ULOD_VALUE: N/A
LLOD_FLAG: -8888
LLOD_VALUE: N/A
DM_CONTACT_INFO: Nathan Howard; nathan.h.howard@noaa.gov
PROJECT_INFO: USOS, summer 2024. https://csl.noaa.gov/groups/csl7/measurements/2024usos/
STIPULATIONS_ON_USE: only the USOS science team is allowed to use this data
OTHER_COMMENTS: Field data; Data are averaged to 1 minute intervals. Stationary data collected from a 10 ft tower on top of the mobile lab
REVISION: RA
RA: Preliminary Data; For in-field use only
starttime_UTC, HNO3_NOAACIMS
0,1539.530
60,1488.744
120,1492.965
180,1583.624
240,1555.124
300,1560.897
360,1375.997
420,1266.753
480,1183.234
540,1020.939
600,1034.565
660,1032.023
720,947.429
780,945.225
840,985.056
900,1009.907
960,1043.515
1020,963.404
1080,988.544
1140,928.163
1200,957.660
1260,958.747
1320,942.907
1380,934.526
1440,898.166
1500,938.997
1560,986.055
1620,1002.781
1680,1037.051
1740,1089.448
1800,1066.269
1860,1075.099
1920,1100.648
1980,1096.994
2040,976.228
2100,1075.214
2160,1004.537
2220,1015.629
2280,1008.319
2340,1062.755
2400,818.338
2460,871.149
2520,941.224
2580,1028.347
2640,1012.829
2700,1010.369
2760,1005.465
2820,1023.497
2880,1116.986
2940,1099.056
3000,1038.142
3060,986.414
3120,1076.285
3180,1086.521
3240,1088.390
3300,1059.835
3360,1112.502
3420,1117.470
3480,1161.406
3540,1118.866
3600,968.281
3660,776.353
3720,725.796
3780,712.790
3840,757.896
3900,736.329
3960,744.345
4020,802.397
4080,793.346
4140,802.479
4200,841.739
4260,667.175
4320,739.546
4380,785.288
4440,818.924
4500,809.103
4560,787.155
4620,791.590
4680,818.193
4740,834.074
4800,778.232
4860,765.210
4920,783.331
4980,782.219
5040,779.734
5100,764.452
5160,767.694
5220,760.830
5280,749.601
5340,814.386
5400,786.885
5460,740.813
5520,731.510
5580,750.663
5640,725.821
5700,737.447
5760,790.145
5820,775.033
5880,796.668
5940,805.518
6000,773.682
6060,771.674
6120,643.254
6180,701.122
6240,744.976
6300,757.714
6360,741.502
6420,789.275
6480,788.091
6540,758.066
6600,754.869
6660,783.276
6720,774.743
6780,748.970
6840,715.502
6900,703.316
6960,746.622
7020,744.183
7080,723.125
7140,799.189
7200,832.699
7260,796.744
7320,765.807
7380,756.700
7440,757.755
7500,749.840
7560,730.097
7620,746.049
7680,724.872
7740,714.750
7800,743.979
7860,706.823
7920,636.321
7980,627.488
8040,661.487
8100,669.761
8160,671.592
8220,712.455
8280,688.797
8340,646.168
8400,678.331
8460,674.384
8520,668.132
8580,630.302
8640,607.823
8700,623.289
8760,642.755
8820,639.721
8880,615.314
8940,621.356
9000,623.424
9060,613.067
9120,608.283
9180,604.455
9240,636.880
9300,658.523
9360,623.985
9420,611.410
9480,624.961
9540,633.056
9600,639.087
9660,610.969
9720,584.608
9780,509.893
9840,530.935
9900,537.719
9960,528.141
10020,542.733
10080,559.843
10140,541.128
10200,527.523
10260,511.781
10320,504.710
10380,489.887
10440,485.019
10500,484.201
10560,492.547
10620,503.514
10680,503.595
10740,478.009
10800,462.931
10860,486.783
10920,511.123
10980,519.756
11040,498.704
11100,496.359
11160,499.227
11220,435.657
11280,453.186
11340,458.123
11400,475.746
11460,484.820
11520,477.872
11580,479.318
11640,451.473
11700,458.754
11760,446.636
11820,431.156
11880,422.968
11940,393.182
12000,406.512
12060,418.530
12120,421.805
12180,411.603
12240,427.827
12300,425.314
12360,411.736
12420,413.735
12480,408.976
12540,396.966
12600,360.179
12660,363.810
12720,381.388
12780,359.236
12840,350.768
12900,348.364
12960,336.138
13020,336.626
13080,325.163
13140,313.462
13200,314.300
13260,319.094
13320,347.586
13380,413.127
13440,464.582
13500,474.510
13560,563.605
13620,567.618
13680,546.320
13740,529.694
13800,506.375
13860,491.375
13920,457.256
13980,424.733
14040,408.640
14100,413.917
14160,427.099
14220,412.681
14280,394.798
14340,381.569
14400,374.403
14460,345.854
14520,337.544
14580,334.871
14640,340.652
14700,340.510
14760,372.611
14820,375.740
14880,340.061
14940,343.610
15000,338.691
15060,330.520
15120,329.855
15180,319.228
15240,318.965
15300,313.471
15360,305.356
15420,302.071
15480,307.416
15540,309.604
15600,329.108
15660,338.782
15720,344.957
15780,350.395
15840,346.915
15900,350.838
15960,373.622
16020,368.758
16080,357.766
16140,354.345
16200,323.102
16260,309.478
16320,305.515
16380,305.462
16440,280.586
16500,274.082
16560,280.743
16620,271.492
16680,291.840
16740,309.224
16800,302.131
16860,286.098
16920,272.590
16980,258.811
17040,242.638
17100,253.557
17160,265.554
17220,243.208
17280,239.382
17340,251.817
17400,267.406
17460,330.223
17520,358.684
17580,340.116
17640,330.384
17700,332.385
17760,337.201
17820,349.878
17880,326.494
17940,348.866
18000,320.979
18060,321.646
18120,394.847
18180,443.433
18240,420.279
18300,395.325
18360,370.472
18420,339.635
18480,322.306
18540,312.067
18600,300.118
18660,292.626
18720,300.225
18780,312.109
18840,315.101
18900,302.545
18960,285.237
19020,274.693
19080,259.616
19140,251.512
19200,239.717
19260,248.932
19320,287.057
19380,314.206
19440,318.913
19500,314.144
19560,307.569
19620,307.841
19680,302.176
19740,283.037
19800,286.708
19860,306.293
19920,305.276
19980,300.022
20040,306.770
20100,289.811
20160,279.030
20220,274.873
20280,281.805
20340,299.967
20400,303.210
20460,301.889
20520,288.348
20580,272.383
20640,267.542
20700,266.273
20760,261.525
20820,260.834
20880,280.248
20940,290.332
21000,286.316
21060,279.103
21120,280.938
21180,283.378
21240,276.364
21300,274.227
21360,273.741
21420,297.487
21480,314.250
21540,312.530
21600,308.857
21660,298.836
21720,294.380
21780,289.378
21840,287.721
21900,289.359
21960,307.247
22020,323.383
22080,333.048
22140,329.296
22200,317.590
22260,293.814
22320,284.519
22380,287.744
22440,297.445
22500,306.354
22560,319.070
22620,350.661
22680,206.228
22740,342.181
22800,343.740
22860,336.265
22920,322.494
22980,321.647
23040,336.340
23100,334.045
23160,360.526
23220,394.497
23280,397.477
23340,379.136
23400,363.577
23460,348.313
23520,339.695
23580,330.047
23640,312.952
23700,296.545
23760,295.133
23820,317.118
23880,332.964
23940,340.250
24000,344.786
24060,329.616
24120,317.875
24180,303.486
24240,301.274
24300,296.737
24360,304.097
24420,321.581
24480,310.564
24540,-9999.000
24600,286.027
24660,281.298
24720,278.017
24780,277.348
24840,273.371
24900,277.785
24960,281.914
25020,307.246
25080,320.941
25140,309.048
25200,296.625
25260,295.181
25320,303.776
25380,307.309
25440,295.236
25500,295.385
25560,304.526
25620,294.365
25680,296.773
25740,283.755
25800,273.927
25860,266.541
25920,261.919
25980,259.246
26040,264.935
26100,273.668
26160,279.863
26220,268.422
26280,263.025
26340,253.725
26400,256.806
26460,250.866
26520,261.957
26580,286.325
26640,298.751
26700,289.906
26760,279.915
26820,268.611
26880,263.494
26940,258.762
27000,265.088
27060,269.895
27120,283.390
27180,284.120
27240,278.548
27300,263.571
27360,255.319
27420,249.076
27480,236.870
27540,248.097
27600,257.492
27660,261.671
27720,254.077
27780,252.781
27840,247.626
27900,231.247
27960,231.347
28020,252.340
28080,262.964
28140,257.113
28200,250.366
28260,238.277
28320,233.682
28380,235.469
28440,237.121
28500,250.146
28560,265.815
28620,269.817
28680,266.742
28740,255.434
28800,246.752
28860,240.317
28920,235.339
28980,234.585
29040,252.478
29100,258.789
29160,255.744
29220,241.390
29280,230.994
29340,219.386
29400,216.103
29460,219.577
29520,230.611
29580,240.726
29640,237.278
29700,227.191
29760,224.175
29820,220.272
29880,222.947
29940,230.677
30000,245.563
30060,242.223
30120,233.415
30180,228.676
30240,224.122
30300,219.331
30360,212.991
30420,228.222
30480,233.081
30540,229.590
30600,225.451
30660,219.359
30720,219.081
30780,214.725
30840,208.121
30900,221.992
30960,231.988
31020,231.613
31080,220.523
31140,214.873
31200,206.108
31260,199.814
31320,206.014
31380,218.329
31440,211.569
31500,205.405
31560,200.920
31620,199.011
31680,197.214
31740,204.128
31800,210.674
31860,211.332
31920,209.090
31980,199.987
32040,196.571
32100,195.844
32160,193.177
32220,191.364
32280,201.890
32340,211.770
32400,214.066
32460,213.192
32520,204.476
32580,199.855
32640,202.800
32700,213.752
32760,221.899
32820,220.548
32880,216.970
32940,212.910
33000,206.551
33060,199.339
33120,198.192
33180,205.013
33240,212.954
33300,205.469
33360,198.067
33420,193.766
33480,190.187
33540,194.083
33600,203.322
33660,208.250
33720,204.558
33780,198.277
33840,190.318
33900,190.654
33960,197.837
34020,204.651
34080,200.949
34140,193.167
34200,189.093
34260,177.943
34320,185.853
34380,195.465
34440,203.725
34500,200.558
34560,195.717
34620,193.118
34680,183.519
34740,184.821
34800,192.354
34860,200.433
34920,201.353
34980,197.928
35040,188.266
35100,181.430
35160,180.875
35220,187.845
35280,195.288
35340,193.248
35400,190.791
35460,189.160
35520,183.827
35580,176.941
35640,181.534
35700,178.904
35760,190.324
35820,188.743
35880,187.063
35940,181.099
36000,175.507
36060,177.699
36120,182.189
36180,194.735
36240,192.489
36300,194.839
36360,194.913
36420,192.028
36480,188.758
36540,192.938
36600,199.141
36660,198.826
36720,191.186
36780,183.084
36840,183.513
36900,184.544
36960,186.023
37020,192.572
37080,197.912
37140,195.675
37200,190.653
37260,185.026
37320,178.548
37380,177.733
37440,185.961
37500,192.408
37560,187.774
37620,186.829
37680,183.914
37740,185.410
37800,183.890
37860,186.372
37920,195.899
37980,198.498
38040,189.368
38100,188.467
38160,188.289
38220,184.253
38280,182.043
38340,186.750
38400,194.030
38460,197.491
38520,190.296
38580,188.209
38640,188.199
38700,184.075
38760,196.581
38820,202.098
38880,200.446
38940,190.573
39000,182.563
39060,180.545
39120,189.226
39180,197.639
39240,195.457
39300,191.562
39360,182.729
39420,179.974
39480,185.008
39540,193.114
39600,202.508
39660,207.483
39720,204.148
39780,198.432
39840,197.391
39900,190.684
39960,193.227
40020,199.863
40080,203.244
40140,197.374
40200,187.486
40260,181.149
40320,173.863
40380,179.482
40440,184.015
40500,183.458
40560,181.132
40620,179.839
40680,172.131
40740,168.253
40800,178.543
40860,192.090
40920,190.535
40980,175.232
41040,172.705
41100,171.776
41160,165.865
41220,169.208
41280,172.763
41340,174.780
41400,168.259
41460,173.868
41520,172.163
41580,162.777
41640,162.252
41700,167.345
41760,163.524
41820,156.738
41880,147.790
41940,137.441
42000,130.720
42060,135.549
42120,141.308
42180,146.328
42240,139.211
42300,135.406
42360,134.899
42420,145.086
42480,145.834
42540,143.109
42600,138.682
42660,134.675
42720,128.937
42780,138.769
42840,145.793
42900,144.663
42960,136.667
43020,-9999.000
43080,140.374
43140,134.015
43200,129.677
43260,115.204
43320,110.868
43380,116.652
43440,123.381
43500,125.149
43560,117.666
43620,114.266
43680,120.421
43740,131.433
43800,132.021
43860,122.520
43920,116.394
43980,117.638
44040,127.573
44100,136.091
44160,144.566
44220,142.204
44280,141.967
44340,139.762
44400,147.047
44460,157.374
44520,160.577
44580,156.008
44640,148.216
44700,146.983
44760,147.980
44820,163.540
44880,178.662
44940,163.328
45000,157.315
45060,161.871
45120,165.154
45180,154.512
45240,151.229
45300,134.344
45360,127.912
45420,125.792
45480,113.045
45540,95.790
45600,66.784
45660,69.244
45720,77.484
45780,87.196
45840,95.448
45900,109.079
45960,128.637
46020,157.209
46080,171.726
46140,171.229
46200,170.190
46260,167.363
46320,170.210
46380,180.447
46440,167.489
46500,162.542
46560,145.982
46620,135.331
46680,141.509
46740,165.536
46800,152.124
46860,235.648
46920,390.869
46980,394.683
47040,379.393
47100,366.324
47160,343.742
47220,320.392
47280,305.440
47340,307.352
47400,304.347
47460,295.973
47520,259.046
47580,233.531
47640,239.764
47700,251.482
47760,239.909
47820,231.584
47880,219.270
47940,220.171
48000,243.583
48060,265.569
48120,257.498
48180,247.492
48240,248.349
48300,234.184
48360,236.284
48420,252.329
48480,245.249
48540,245.702
48600,249.037
48660,254.524
48720,276.582
48780,301.320
48840,286.055
48900,268.573
48960,248.647
49020,241.286
49080,232.435
49140,271.793
49200,298.632
49260,285.250
49320,293.686
49380,302.654
49440,258.781
49500,218.880
49560,215.378
49620,251.082
49680,284.352
49740,284.555
49800,280.138
49860,268.810
49920,254.203
49980,245.881
50040,226.627
50100,230.033
50160,251.171
50220,273.120
50280,272.175
50340,257.110
50400,253.958
50460,259.442
50520,249.034
50580,241.233
50640,237.880
50700,238.935
50760,262.267
50820,290.265
50880,305.564
50940,308.804
51000,319.001
51060,320.369
51120,311.559
51180,307.921
51240,295.272
51300,297.207
51360,288.471
51420,297.504
51480,302.129
51540,297.430
51600,308.794
51660,306.048
51720,322.419
51780,319.393
51840,303.788
51900,316.872
51960,347.653
52020,383.089
52080,419.684
52140,444.537
52200,482.351
52260,445.059
52320,405.260
52380,405.647
52440,385.145
52500,400.048
52560,388.671
52620,360.913
52680,352.427
52740,332.229
52800,340.601
52860,394.340
52920,435.113
52980,479.525
53040,489.956
53100,467.500
53160,456.156
53220,480.054
53280,464.290
53340,411.964
53400,375.816
53460,440.464
53520,501.811
53580,566.904
53640,607.090
53700,610.905
53760,573.016
53820,566.592
53880,534.986
53940,587.505
54000,628.914
54060,632.587
54120,513.353
54180,568.344
54240,643.001
54300,703.873
54360,708.020
54420,681.088
54480,652.786
54540,690.202
54600,692.032
54660,681.319
54720,641.847
54780,600.995
54840,605.680
54900,592.038
54960,632.337
55020,648.896
55080,697.639
55140,749.153
55200,778.914
55260,777.596
55320,782.055
55380,776.519
55440,765.434
55500,715.670
55560,681.270
55620,681.748
55680,669.974
55740,675.971
55800,701.251
55860,-9999.000
55920,-9999.000
55980,-9999.000
56040,-9999.000
56100,-9999.000
56160,-9999.000
56220,313.533
56280,846.730
56340,862.955
56400,828.410
56460,822.769
56520,848.295
56580,868.602
56640,862.479
56700,698.010
56760,707.201
56820,691.595
56880,743.099
56940,785.427
57000,821.037
57060,824.209
57120,859.328
57180,868.489
57240,893.831
57300,900.190
57360,930.327
57420,906.133
57480,866.221
57540,843.063
57600,855.642
57660,895.090
57720,921.295
57780,974.556
57840,1028.944
57900,1027.398
57960,1046.137
58020,1104.510
58080,1094.974
58140,1038.039
58200,1022.467
58260,1031.615
58320,1075.025
58380,1082.672
58440,1103.241
58500,1019.292
58560,1024.075
58620,1070.345
58680,1139.692
58740,1244.021
58800,1322.848
58860,1367.528
58920,1321.252
58980,1354.844
59040,1398.850
59100,1383.385
59160,1290.929
59220,1345.681
59280,1366.737
59340,1321.288
59400,1370.671
59460,1442.633
59520,1462.715
59580,1462.372
59640,1496.190
59700,1513.734
59760,1475.529
59820,1390.970
59880,1451.755
59940,1504.444
60000,1488.238
60060,1497.710
60120,1460.808
60180,1483.320
60240,1539.456
60300,1569.771
60360,1183.546
60420,1365.807
60480,1400.547
60540,1484.799
60600,1465.779
60660,1230.366
60720,1321.427
60780,1376.171
60840,1411.299
60900,1404.011
60960,1443.805
61020,1410.435
61080,1419.319
61140,1433.101
61200,1443.772
61260,1430.978
61320,1428.067
61380,1446.833
61440,1516.052
61500,1537.086
61560,1489.176
61620,1455.982
61680,1597.497
61740,1587.398
61800,1562.611
61860,1588.428
61920,1569.559
61980,1577.717
62040,1533.013
62100,1440.697
62160,1452.362
62220,1329.621
62280,1476.834
62340,1422.391
62400,1301.826
62460,1263.085
62520,1289.037
62580,1284.615
62640,1226.274
62700,1172.142
62760,1063.369
62820,1012.966
62880,956.980
62940,963.616
63000,939.057
63060,1020.090
63120,1132.264
63180,1193.613
63240,1222.207
63300,1169.257
63360,1184.749
63420,1300.829
63480,1318.879
63540,1318.103
63600,1474.866
63660,1447.666
63720,1499.817
63780,1617.286
63840,1705.143
63900,1746.516
63960,1703.797
64020,1858.609
64080,1580.781
64140,2029.695
64200,2294.013
64260,2387.047
64320,2439.827
64380,2570.018
64440,2638.087
64500,2718.617
64560,2849.494
64620,2891.350
64680,2888.335
64740,2967.866
64800,3110.188
64860,3155.057
64920,3181.849
64980,3060.513
65040,3122.017
65100,3228.646
65160,3159.256
65220,3268.217
65280,3127.022
65340,3046.508
65400,3166.901
65460,2711.711
65520,2670.973
65580,2708.703
65640,2881.981
65700,2700.238
65760,2676.585
65820,2721.740
65880,3070.563
65940,2465.135
66000,2993.804
66060,3360.173
66120,3366.757
66180,2874.047
66240,3002.322
66300,2759.092
66360,2708.077
66420,2977.906
66480,3191.569
66540,3223.922
66600,3364.080
66660,3377.820
66720,3446.355
66780,3573.290
66840,3796.269
66900,3782.624
66960,3561.082
67020,3773.952
67080,3949.020
67140,4051.940
67200,4309.443
67260,4278.186
67320,4710.180
67380,-9999.000
67440,-9999.000
67500,-9999.000
67560,-9999.000
67620,-9999.000
67680,-9999.000
67740,-9999.000
67800,-9999.000
67860,-9999.000
67920,-9999.000
67980,-9999.000
68040,-9999.000
68100,-9999.000
68160,-9999.000
68220,-9999.000
68280,-9999.000
68340,-9999.000
68400,-9999.000
68460,-9999.000
68520,-9999.000
68580,-9999.000
68640,-9999.000
68700,-9999.000
68760,-9999.000
68820,-9999.000
68880,-9999.000
68940,-9999.000
69000,-9999.000
69060,-9999.000
69120,-9999.000
69180,-9999.000
69240,-9999.000
69300,-9999.000
69360,-9999.000
69420,-9999.000
69480,-9999.000
69540,-9999.000
69600,-9999.000
69660,-9999.000
69720,-9999.000
69780,-9999.000
69840,-9999.000
69900,-9999.000
69960,-9999.000
70020,-9999.000
70080,-9999.000
70140,-9999.000
70200,-9999.000
70260,-9999.000
70320,-9999.000
70380,-9999.000
70440,-9999.000
70500,-9999.000
70560,-9999.000
70620,-9999.000
70680,-9999.000
70740,-9999.000
70800,-9999.000
70860,-9999.000
70920,-9999.000
70980,-9999.000
71040,-9999.000
71100,-9999.000
71160,-9999.000
71220,-9999.000
71280,-9999.000
71340,-9999.000
71400,-9999.000
71460,-9999.000
71520,-9999.000
71580,-9999.000
71640,-9999.000
71700,-9999.000
71760,-9999.000
71820,-9999.000
71880,-9999.000
71940,-9999.000
72000,-9999.000
72060,-9999.000
72120,-9999.000
72180,-9999.000
72240,-9999.000
72300,-9999.000
72360,-9999.000
72420,-9999.000
72480,-9999.000
72540,-9999.000
72600,-9999.000
72660,-9999.000
72720,-9999.000
72780,-9999.000
72840,-9999.000
72900,-9999.000
72960,-9999.000
73020,-9999.000
73080,-9999.000
73140,-9999.000
73200,-9999.000
73260,-9999.000
73320,-9999.000
73380,-9999.000
73440,-9999.000
73500,-9999.000
73560,-9999.000
73620,-9999.000
73680,-9999.000
73740,-9999.000
73800,-9999.000
73860,-9999.000
73920,-9999.000
73980,-9999.000
74040,-9999.000
74100,-9999.000
74160,-9999.000
74220,-9999.000
74280,-9999.000
74340,-9999.000
74400,-9999.000
74460,-9999.000
74520,-9999.000
74580,-9999.000
74640,-9999.000
74700,-9999.000
74760,-9999.000
74820,-9999.000
74880,-9999.000
74940,-9999.000
75000,-9999.000
75060,-9999.000
75120,-9999.000
75180,-9999.000
75240,-9999.000
75300,-9999.000
75360,-9999.000
75420,-9999.000
75480,-9999.000
75540,-9999.000
75600,-9999.000
75660,-9999.000
75720,-9999.000
75780,-9999.000
75840,-9999.000
75900,-9999.000
75960,-9999.000
76020,-9999.000
76080,-9999.000
76140,-9999.000
76200,-9999.000
76260,-9999.000
76320,-9999.000
76380,-9999.000
76440,-9999.000
76500,-9999.000
76560,-9999.000
76620,-9999.000
76680,-9999.000
76740,-9999.000
76800,-9999.000
76860,-9999.000
76920,-9999.000
76980,-9999.000
77040,-9999.000
77100,-9999.000
77160,-9999.000
77220,-9999.000
77280,-9999.000
77340,-9999.000
77400,-9999.000
77460,-9999.000
77520,-9999.000
77580,-9999.000
77640,-9999.000
77700,-9999.000
77760,-9999.000
77820,-9999.000
77880,-9999.000
77940,-9999.000
78000,-9999.000
78060,-9999.000
78120,-9999.000
78180,-9999.000
78240,-9999.000
78300,-9999.000
78360,-9999.000
78420,-9999.000
78480,-9999.000
78540,-9999.000
78600,-9999.000
78660,-9999.000
78720,-9999.000
78780,-9999.000
78840,-9999.000
78900,-9999.000
78960,-9999.000
79020,-9999.000
79080,-9999.000
79140,-9999.000
79200,-9999.000
79260,-9999.000
79320,-9999.000
79380,-9999.000
79440,-9999.000
79500,-9999.000
79560,-9999.000
79620,-9999.000
79680,-9999.000
79740,-9999.000
79800,-9999.000
79860,-9999.000
79920,-9999.000
79980,-9999.000
80040,-9999.000
80100,-9999.000
80160,-9999.000
80220,-9999.000
80280,-9999.000
80340,-9999.000
80400,-9999.000
80460,-9999.000
80520,-9999.000
80580,-9999.000
80640,-9999.000
80700,-9999.000
80760,-9999.000
80820,-9999.000
80880,-9999.000
80940,-9999.000
81000,-9999.000
81060,-9999.000
81120,-9999.000
81180,-9999.000
81240,-9999.000
81300,-9999.000
81360,-9999.000
81420,-9999.000
81480,-9999.000
81540,-9999.000
81600,-9999.000
81660,-9999.000
81720,-9999.000
81780,-9999.000
81840,-9999.000
81900,-9999.000
81960,-9999.000
82020,-9999.000
82080,-9999.000
82140,-9999.000
82200,-9999.000
82260,-9999.000
82320,-9999.000
82380,-9999.000
82440,-9999.000
82500,-9999.000
82560,-9999.000
82620,-9999.000
82680,-9999.000
82740,-9999.000
82800,-9999.000
82860,-9999.000
82920,-9999.000
82980,-9999.000
83040,-9999.000
83100,-9999.000
83160,-9999.000
83220,-9999.000
83280,-9999.000
83340,-9999.000
83400,-9999.000
83460,-9999.000
83520,-9999.000
83580,-9999.000
83640,-9999.000
83700,-9999.000
83760,-9999.000
83820,-9999.000
83880,-9999.000
83940,-9999.000
84000,-9999.000
84060,-9999.000
84120,-9999.000
84180,-9999.000
84240,-9999.000
84300,-9999.000
84360,-9999.000
84420,-9999.000
84480,-9999.000
84540,-9999.000
84600,-9999.000
84660,-9999.000
84720,-9999.000
84780,-9999.000
84840,-9999.000
84900,-9999.000
84960,-9999.000
85020,-9999.000
85080,-9999.000
85140,-9999.000
85200,-9999.000
85260,-9999.000
85320,-9999.000
85380,-9999.000
85440,-9999.000
85500,-9999.000
85560,-9999.000
85620,-9999.000
85680,-9999.000
85740,-9999.000
85800,-9999.000
85860,-9999.000
85920,-9999.000
85980,-9999.000
86040,-9999.000
86100,-9999.000
86160,-9999.000
86220,-9999.000
86280,-9999.000
86340,-9999.000
