33, 1001
Michael A Robinson, Chris Jernigan, Subi Thakali
NOAA ESRL Chemical Sciences Laboratory and CIRES, U. of Colorado
NOAA Iodide CIMS Instrument
USOS
1, 1
2024, 08, 12, 2024, 08, 13
1
starttime_UTC, seconds_past_midnight, seconds_of_day_since_00:00:00_UTC
1
1
-9999
N2O5_NOAACIMS, pptv, Gas_N2O5_InSitu_S_AVMR, 
0
18
PI_CONTACT_INFO: 325 Broadway, R/CSD 7, Boulder, Colorado 80305; michael.a.robinson@noaa.gov; chris.jernigan@noaa.gov;
PLATFORM: NOAA CSL Mobile Lab
LOCATION: SLC, Utah
ASSOCIATED_DATA: 1Hz data also available on request.
INSTRUMENT_INFO: NOAA I- ToF CIMS
DATA_INFO: All data in parts per trillion by volume (pptv). 1 Hz data is available upon request.
UNCERTAINTY: TBD
ULOD_FLAG: -7777
ULOD_VALUE: N/A
LLOD_FLAG: -8888
LLOD_VALUE: N/A
DM_CONTACT_INFO: Nathan Howard; nathan.h.howard@noaa.gov
PROJECT_INFO: USOS, summer 2024. https://csl.noaa.gov/groups/csl7/measurements/2024usos/
STIPULATIONS_ON_USE: Users are strongly encouraged to contact the PI for proper data usage.
OTHER_COMMENTS: 
REVISION: RA
RA: Preliminary Data; For in-field use only
starttime_UTC, N2O5_NOAACIMS
     0, -9999.000
    60, -9999.000
   120, -9999.000
   180, -9999.000
   240, -9999.000
   300, -9999.000
   360, -9999.000
   420, -9999.000
   480, -9999.000
   540, -9999.000
   600, -9999.000
   660, -9999.000
   720, -9999.000
   780, -9999.000
   840, -9999.000
   900, -9999.000
   960, -9999.000
  1020, -9999.000
  1080, -9999.000
  1140, -9999.000
  1200, -9999.000
  1260, -9999.000
  1320, -9999.000
  1380, -9999.000
  1440, -9999.000
  1500, -9999.000
  1560, -9999.000
  1620, -9999.000
  1680, -9999.000
  1740, -9999.000
  1800, -9999.000
  1860, -9999.000
  1920, -9999.000
  1980, -9999.000
  2040, -9999.000
  2100, -9999.000
  2160, -9999.000
  2220, -9999.000
  2280, -9999.000
  2340, -9999.000
  2400, -9999.000
  2460, -9999.000
  2520, -9999.000
  2580, -9999.000
  2640, -9999.000
  2700, -9999.000
  2760, -9999.000
  2820, -9999.000
  2880, -9999.000
  2940, -9999.000
  3000, -9999.000
  3060, -9999.000
  3120, -9999.000
  3180, -9999.000
  3240, -9999.000
  3300, -9999.000
  3360, -9999.000
  3420, -9999.000
  3480, -9999.000
  3540, -9999.000
  3600, -9999.000
  3660, -9999.000
  3720, -9999.000
  3780, -9999.000
  3840, -9999.000
  3900, -9999.000
  3960, -9999.000
  4020, -9999.000
  4080, -9999.000
  4140, -9999.000
  4200, -9999.000
  4260, -9999.000
  4320, -9999.000
  4380, -9999.000
  4440, -9999.000
  4500, -9999.000
  4560, -9999.000
  4620, -9999.000
  4680, -9999.000
  4740, -9999.000
  4800, -9999.000
  4860, -9999.000
  4920, -9999.000
  4980, -9999.000
  5040, -9999.000
  5100, -9999.000
  5160, -9999.000
  5220, -9999.000
  5280, -9999.000
  5340, -9999.000
  5400, -9999.000
  5460,  0.941
  5520,  1.066
  5580,  0.971
  5640,  1.075
  5700,  0.563
  5760,  0.416
  5820,  0.517
  5880,  0.453
  5940,  0.401
  6000,  0.570
  6060,  0.550
  6120, -9999.000
  6180,  0.515
  6240,  0.668
  6300,  0.678
  6360,  0.686
  6420,  1.114
  6480,  1.445
  6540,  1.619
  6600,  0.734
  6660,  0.754
  6720,  1.108
  6780,  0.647
  6840,  0.539
  6900,  1.397
  6960,  2.235
  7020,  1.163
  7080,  1.627
  7140,  1.439
  7200,  1.837
  7260,  2.382
  7320,  3.398
  7380,  3.862
  7440,  3.202
  7500,  3.216
  7560,  4.271
  7620,  3.482
  7680,  2.538
  7740,  3.135
  7800,  2.799
  7860,  4.083
  7920,  4.317
  7980, -9999.000
  8040,  5.009
  8100,  6.131
  8160,  6.338
  8220,  4.604
  8280,  4.130
  8340,  3.148
  8400,  3.736
  8460,  4.159
  8520,  3.386
  8580,  3.986
  8640,  4.089
  8700,  5.753
  8760,  5.745
  8820,  6.190
  8880,  6.943
  8940,  6.168
  9000,  7.194
  9060,  7.043
  9120,  5.537
  9180,  7.403
  9240,  3.419
  9300,  6.759
  9360,  5.477
  9420,  4.827
  9480,  3.854
  9540,  2.581
  9600,  1.945
  9660,  1.490
  9720,  1.352
  9780,  1.140
  9840,  1.540
  9900,  0.957
  9960,  0.789
 10020,  0.871
 10080,  0.888
 10140,  0.987
 10200,  1.078
 10260,  1.159
 10320,  1.644
 10380,  1.361
 10440,  1.497
 10500,  1.369
 10560,  1.472
 10620,  1.376
 10680,  1.320
 10740,  1.243
 10800,  1.148
 10860,  1.456
 10920,  1.256
 10980,  1.156
 11040,  1.227
 11100,  1.345
 11160,  1.297
 11220,  1.153
 11280,  1.185
 11340,  1.047
 11400,  1.006
 11460,  1.087
 11520,  1.436
 11580,  1.433
 11640, -9999.000
 11700,  1.071
 11760,  1.437
 11820,  1.428
 11880,  1.577
 11940,  1.678
 12000,  1.690
 12060,  1.776
 12120,  1.852
 12180,  1.942
 12240,  1.777
 12300,  1.788
 12360,  1.633
 12420,  1.482
 12480,  1.615
 12540,  1.192
 12600,  1.455
 12660,  1.541
 12720,  1.873
 12780,  1.446
 12840,  1.855
 12900,  2.214
 12960,  1.906
 13020,  2.019
 13080,  2.242
 13140,  2.021
 13200,  2.430
 13260,  2.208
 13320,  2.410
 13380,  3.053
 13440,  2.491
 13500,  2.351
 13560,  2.376
 13620,  2.831
 13680,  2.098
 13740,  2.089
 13800,  2.150
 13860,  2.055
 13920,  1.835
 13980,  1.494
 14040,  1.936
 14100,  1.969
 14160,  2.087
 14220,  2.275
 14280,  2.415
 14340,  2.757
 14400,  2.659
 14460,  2.414
 14520,  2.798
 14580,  1.760
 14640,  1.643
 14700,  2.077
 14760,  2.013
 14820,  2.542
 14880,  2.779
 14940,  3.448
 15000,  2.867
 15060,  3.487
 15120,  5.363
 15180,  5.699
 15240,  5.991
 15300,  4.419
 15360, -9999.000
 15420,  4.556
 15480,  4.583
 15540,  4.294
 15600,  3.589
 15660,  3.818
 15720,  4.614
 15780,  3.906
 15840,  3.636
 15900,  3.464
 15960,  4.167
 16020,  3.766
 16080,  3.347
 16140,  3.153
 16200,  3.463
 16260,  3.907
 16320,  2.608
 16380,  2.844
 16440,  5.087
 16500,  4.358
 16560,  3.494
 16620,  4.060
 16680,  8.269
 16740,  8.049
 16800,  7.513
 16860,  6.375
 16920,  8.932
 16980,  6.592
 17040,  7.023
 17100,  6.298
 17160,  8.856
 17220,  7.154
 17280,  8.927
 17340,  7.439
 17400, 10.532
 17460,  9.182
 17520,  9.361
 17580,  6.852
 17640,  7.126
 17700, 10.486
 17760,  9.629
 17820,  9.382
 17880,  7.088
 17940,  7.822
 18000,  7.013
 18060,  6.675
 18120,  7.887
 18180,  7.724
 18240,  7.753
 18300,  6.977
 18360,  9.246
 18420,  7.776
 18480,  8.723
 18540, 11.036
 18600,  7.607
 18660,  7.883
 18720,  7.642
 18780,  8.095
 18840,  7.629
 18900,  7.091
 18960,  5.650
 19020,  5.117
 19080,  8.569
 19140,  6.621
 19200,  6.400
 19260,  5.704
 19320,  4.870
 19380,  4.091
 19440,  4.683
 19500,  4.904
 19560,  5.297
 19620,  5.210
 19680,  5.972
 19740,  6.462
 19800,  5.868
 19860,  6.496
 19920,  6.115
 19980,  6.322
 20040,  6.153
 20100,  5.412
 20160,  5.351
 20220,  5.079
 20280,  4.732
 20340,  4.255
 20400,  4.356
 20460,  4.021
 20520,  3.981
 20580,  4.158
 20640,  4.178
 20700,  4.358
 20760,  3.605
 20820,  3.986
 20880,  3.774
 20940,  3.241
 21000,  3.778
 21060,  3.966
 21120,  3.145
 21180,  3.152
 21240,  4.033
 21300,  3.310
 21360,  3.908
 21420,  4.432
 21480,  4.812
 21540,  4.253
 21600,  4.340
 21660,  3.797
 21720,  4.180
 21780,  3.825
 21840,  3.680
 21900,  4.286
 21960,  3.439
 22020,  3.691
 22080,  3.874
 22140,  4.459
 22200,  4.224
 22260,  4.828
 22320,  3.971
 22380,  3.586
 22440,  3.567
 22500,  3.507
 22560,  3.546
 22620,  4.039
 22680,  4.424
 22740, -9999.000
 22800,  3.433
 22860,  4.263
 22920,  4.783
 22980,  4.422
 23040,  4.790
 23100,  4.793
 23160,  5.180
 23220,  4.848
 23280,  4.883
 23340,  4.237
 23400,  4.310
 23460,  4.010
 23520,  4.683
 23580,  4.314
 23640,  3.492
 23700,  3.249
 23760,  3.725
 23820,  3.955
 23880,  4.072
 23940,  3.789
 24000,  4.458
 24060,  4.771
 24120,  4.685
 24180,  5.069
 24240,  4.209
 24300,  4.243
 24360,  4.826
 24420,  4.578
 24480,  4.542
 24540,  4.675
 24600, -9999.000
 24660,  3.643
 24720,  6.011
 24780,  6.012
 24840,  5.226
 24900,  3.498
 24960,  4.843
 25020,  4.468
 25080,  4.407
 25140,  4.693
 25200,  5.226
 25260,  5.934
 25320,  4.776
 25380,  4.452
 25440,  3.797
 25500,  3.842
 25560,  4.649
 25620,  4.531
 25680,  4.837
 25740,  4.521
 25800,  4.138
 25860,  4.234
 25920,  4.358
 25980,  4.258
 26040,  3.699
 26100,  3.941
 26160,  4.191
 26220,  3.977
 26280,  3.650
 26340,  4.409
 26400,  3.947
 26460, -9999.000
 26520,  3.481
 26580,  3.690
 26640,  3.854
 26700,  3.423
 26760,  3.754
 26820,  3.716
 26880,  3.068
 26940,  3.268
 27000,  2.918
 27060,  3.130
 27120,  2.896
 27180,  2.759
 27240,  3.299
 27300,  3.275
 27360,  2.899
 27420,  3.244
 27480,  3.105
 27540,  3.094
 27600,  4.359
 27660,  4.099
 27720,  5.528
 27780,  4.131
 27840,  2.782
 27900,  4.193
 27960,  4.088
 28020,  3.806
 28080,  4.912
 28140,  5.437
 28200,  4.526
 28260,  3.292
 28320,  3.196
 28380,  2.747
 28440,  3.138
 28500,  2.347
 28560,  3.105
 28620,  2.713
 28680,  2.257
 28740,  2.462
 28800,  2.365
 28860,  1.955
 28920,  2.777
 28980,  2.228
 29040,  2.214
 29100,  2.153
 29160,  1.811
 29220,  1.687
 29280,  1.488
 29340,  1.467
 29400,  1.240
 29460,  1.006
 29520,  0.901
 29580,  0.883
 29640,  0.903
 29700,  0.830
 29760,  0.898
 29820,  0.949
 29880,  0.757
 29940,  0.617
 30000,  0.646
 30060,  0.852
 30120, -9999.000
 30180,  0.500
 30240,  0.582
 30300,  0.670
 30360,  0.708
 30420,  0.670
 30480,  0.602
 30540,  0.624
 30600,  0.542
 30660,  0.535
 30720,  0.556
 30780,  0.399
 30840,  0.469
 30900,  0.384
 30960,  0.249
 31020,  0.311
 31080,  0.381
 31140,  0.277
 31200,  0.317
 31260,  0.351
 31320,  0.422
 31380,  0.375
 31440,  0.378
 31500,  0.279
 31560,  0.388
 31620,  0.355
 31680,  0.485
 31740,  0.543
 31800,  0.681
 31860,  0.551
 31920,  0.598
 31980, -9999.000
 32040,  0.583
 32100,  0.446
 32160,  0.842
 32220,  0.864
 32280,  0.841
 32340,  1.164
 32400,  1.271
 32460,  1.452
 32520,  1.400
 32580,  2.466
 32640,  2.807
 32700,  5.966
 32760,  6.165
 32820,  5.663
 32880,  4.419
 32940,  3.505
 33000,  3.576
 33060,  3.399
 33120,  2.886
 33180,  2.428
 33240,  2.884
 33300,  2.726
 33360,  3.105
 33420,  3.168
 33480,  2.846
 33540,  2.709
 33600,  2.403
 33660,  2.039
 33720,  1.860
 33780,  2.331
 33840, -9999.000
 33900,  2.024
 33960,  1.748
 34020,  1.851
 34080,  2.188
 34140,  2.499
 34200,  2.418
 34260,  2.132
 34320,  2.913
 34380,  2.809
 34440,  4.052
 34500,  4.791
 34560,  3.738
 34620,  3.268
 34680,  3.745
 34740,  3.014
 34800,  2.954
 34860,  2.496
 34920,  1.695
 34980,  1.532
 35040,  1.758
 35100,  2.783
 35160,  2.249
 35220,  1.614
 35280,  1.509
 35340,  1.802
 35400,  1.816
 35460,  3.189
 35520,  2.041
 35580,  1.498
 35640,  0.967
 35700,  0.870
 35760,  1.150
 35820,  1.691
 35880,  2.027
 35940,  2.610
 36000,  2.362
 36060,  3.596
 36120,  2.846
 36180,  2.790
 36240,  3.610
 36300,  2.620
 36360,  2.882
 36420,  3.719
 36480,  3.918
 36540,  3.391
 36600,  2.818
 36660,  3.558
 36720,  3.844
 36780,  3.764
 36840,  2.999
 36900,  2.430
 36960,  2.380
 37020,  2.310
 37080,  2.395
 37140,  1.740
 37200,  2.012
 37260,  1.604
 37320,  3.090
 37380,  4.062
 37440,  3.103
 37500, -9999.000
 37560,  2.509
 37620,  1.874
 37680,  2.686
 37740,  2.268
 37800,  3.100
 37860,  4.697
 37920,  5.124
 37980,  5.509
 38040,  5.285
 38100,  4.477
 38160,  4.275
 38220,  4.176
 38280,  3.115
 38340,  3.875
 38400,  4.037
 38460,  3.679
 38520,  3.629
 38580,  3.133
 38640,  2.587
 38700,  2.332
 38760,  2.794
 38820,  4.055
 38880,  5.196
 38940,  4.880
 39000,  4.534
 39060,  6.431
 39120,  7.572
 39180,  7.799
 39240,  4.737
 39300,  5.468
 39360,  7.251
 39420,  6.232
 39480,  3.929
 39540,  4.262
 39600,  5.266
 39660,  3.945
 39720,  3.387
 39780,  3.302
 39840,  2.753
 39900,  3.495
 39960,  2.850
 40020,  2.790
 40080,  2.343
 40140,  3.001
 40200,  3.775
 40260,  3.838
 40320,  3.329
 40380,  3.271
 40440,  2.793
 40500,  3.961
 40560,  4.061
 40620,  4.695
 40680,  3.601
 40740,  3.339
 40800,  4.043
 40860,  3.958
 40920,  3.960
 40980,  4.895
 41040,  4.528
 41100,  4.334
 41160,  2.946
 41220, -9999.000
 41280,  5.427
 41340,  5.653
 41400,  4.233
 41460,  4.398
 41520,  4.441
 41580,  4.453
 41640,  4.886
 41700,  5.700
 41760,  5.068
 41820,  4.013
 41880,  5.428
 41940,  5.841
 42000,  4.994
 42060,  5.284
 42120,  5.820
 42180,  6.198
 42240,  6.832
 42300,  6.821
 42360,  6.328
 42420,  5.019
 42480,  5.566
 42540,  5.974
 42600,  5.452
 42660,  5.616
 42720,  4.888
 42780,  4.555
 42840,  4.847
 42900,  6.960
 42960,  6.997
 43020,  7.119
 43080,  4.774
 43140,  6.492
 43200,  6.290
 43260,  5.910
 43320,  5.944
 43380,  5.426
 43440,  6.517
 43500,  4.702
 43560,  5.942
 43620,  7.017
 43680,  6.203
 43740,  5.414
 43800,  4.277
 43860,  4.218
 43920,  7.146
 43980,  6.091
 44040,  7.355
 44100,  6.407
 44160,  5.119
 44220,  5.693
 44280,  8.367
 44340,  6.005
 44400,  6.964
 44460,  7.404
 44520,  8.555
 44580,  6.580
 44640,  7.525
 44700,  8.000
 44760,  6.524
 44820,  7.744
 44880,  8.458
 44940,  3.975
 45000,  6.332
 45060,  5.586
 45120,  7.574
 45180,  8.511
 45240,  8.569
 45300,  7.825
 45360,  6.384
 45420,  4.923
 45480,  5.395
 45540,  6.640
 45600,  7.621
 45660,  7.714
 45720,  8.349
 45780,  7.440
 45840,  6.008
 45900,  3.702
 45960,  4.395
 46020,  4.640
 46080,  4.791
 46140,  2.802
 46200,  3.212
 46260,  2.412
 46320,  2.219
 46380,  1.585
 46440,  1.445
 46500,  1.440
 46560,  1.285
 46620,  0.901
 46680,  1.034
 46740,  1.334
 46800, -9999.000
 46860, -9999.000
 46920, -9999.000
 46980, -9999.000
 47040, -9999.000
 47100, -9999.000
 47160, -9999.000
 47220, -9999.000
 47280, -9999.000
 47340, -9999.000
 47400, -9999.000
 47460, -9999.000
 47520, -9999.000
 47580, -9999.000
 47640, -9999.000
 47700, -9999.000
 47760, -9999.000
 47820, -9999.000
 47880, -9999.000
 47940, -9999.000
 48000, -9999.000
 48060, -9999.000
 48120, -9999.000
 48180, -9999.000
 48240, -9999.000
 48300, -9999.000
 48360, -9999.000
 48420, -9999.000
 48480, -9999.000
 48540, -9999.000
 48600, -9999.000
 48660, -9999.000
 48720, -9999.000
 48780, -9999.000
 48840, -9999.000
 48900, -9999.000
 48960, -9999.000
 49020, -9999.000
 49080, -9999.000
 49140, -9999.000
 49200, -9999.000
 49260, -9999.000
 49320, -9999.000
 49380, -9999.000
 49440, -9999.000
 49500, -9999.000
 49560, -9999.000
 49620, -9999.000
 49680, -9999.000
 49740, -9999.000
 49800, -9999.000
 49860, -9999.000
 49920, -9999.000
 49980, -9999.000
 50040, -9999.000
 50100, -9999.000
 50160, -9999.000
 50220, -9999.000
 50280, -9999.000
 50340, -9999.000
 50400, -9999.000
 50460, -9999.000
 50520, -9999.000
 50580, -9999.000
 50640, -9999.000
 50700, -9999.000
 50760, -9999.000
 50820, -9999.000
 50880, -9999.000
 50940, -9999.000
 51000, -9999.000
 51060, -9999.000
 51120, -9999.000
 51180, -9999.000
 51240, -9999.000
 51300, -9999.000
 51360, -9999.000
 51420, -9999.000
 51480, -9999.000
 51540, -9999.000
 51600, -9999.000
 51660, -9999.000
 51720, -9999.000
 51780, -9999.000
 51840, -9999.000
 51900, -9999.000
 51960, -9999.000
 52020, -9999.000
 52080, -9999.000
 52140, -9999.000
 52200, -9999.000
 52260, -9999.000
 52320, -9999.000
 52380, -9999.000
 52440, -9999.000
 52500, -9999.000
 52560, -9999.000
 52620, -9999.000
 52680, -9999.000
 52740, -9999.000
 52800, -9999.000
 52860, -9999.000
 52920, -9999.000
 52980, -9999.000
 53040, -9999.000
 53100, -9999.000
 53160, -9999.000
 53220, -9999.000
 53280, -9999.000
 53340, -9999.000
 53400, -9999.000
 53460, -9999.000
 53520, -9999.000
 53580, -9999.000
 53640, -9999.000
 53700, -9999.000
 53760, -9999.000
 53820, -9999.000
 53880, -9999.000
 53940, -9999.000
 54000, -9999.000
 54060, -9999.000
 54120, -9999.000
 54180, -9999.000
 54240, -9999.000
 54300, -9999.000
 54360, -9999.000
 54420, -9999.000
 54480, -9999.000
 54540, -9999.000
 54600, -9999.000
 54660, -9999.000
 54720, -9999.000
 54780, -9999.000
 54840, -9999.000
 54900, -9999.000
 54960, -9999.000
 55020, -9999.000
 55080, -9999.000
 55140, -9999.000
 55200, -9999.000
 55260, -9999.000
 55320, -9999.000
 55380, -9999.000
 55440, -9999.000
 55500, -9999.000
 55560, -9999.000
 55620, -9999.000
 55680, -9999.000
 55740, -9999.000
 55800, -9999.000
 55860, -9999.000
 55920, -9999.000
 55980, -9999.000
 56040, -9999.000
 56100, -9999.000
 56160, -9999.000
 56220, -9999.000
 56280, -9999.000
 56340, -9999.000
 56400, -9999.000
 56460, -9999.000
 56520, -9999.000
 56580, -9999.000
 56640, -9999.000
 56700, -9999.000
 56760, -9999.000
 56820, -9999.000
 56880, -9999.000
 56940, -9999.000
 57000, -9999.000
 57060, -9999.000
 57120, -9999.000
 57180, -9999.000
 57240, -9999.000
 57300, -9999.000
 57360, -9999.000
 57420, -9999.000
 57480, -9999.000
 57540, -9999.000
 57600, -9999.000
 57660, -9999.000
 57720, -9999.000
 57780, -9999.000
 57840, -9999.000
 57900, -9999.000
 57960, -9999.000
 58020, -9999.000
 58080, -9999.000
 58140, -9999.000
 58200, -9999.000
 58260, -9999.000
 58320, -9999.000
 58380, -9999.000
 58440, -9999.000
 58500, -9999.000
 58560, -9999.000
 58620, -9999.000
 58680, -9999.000
 58740, -9999.000
 58800, -9999.000
 58860, -9999.000
 58920, -9999.000
 58980, -9999.000
 59040, -9999.000
 59100, -9999.000
 59160, -9999.000
 59220, -9999.000
 59280, -9999.000
 59340, -9999.000
 59400, -9999.000
 59460, -9999.000
 59520, -9999.000
 59580, -9999.000
 59640, -9999.000
 59700, -9999.000
 59760, -9999.000
 59820, -9999.000
 59880, -9999.000
 59940, -9999.000
 60000, -9999.000
 60060, -9999.000
 60120, -9999.000
 60180, -9999.000
 60240, -9999.000
 60300, -9999.000
 60360, -9999.000
 60420, -9999.000
 60480, -9999.000
 60540, -9999.000
 60600, -9999.000
 60660, -9999.000
 60720, -9999.000
 60780, -9999.000
 60840, -9999.000
 60900, -9999.000
 60960, -9999.000
 61020, -9999.000
 61080, -9999.000
 61140, -9999.000
 61200, -9999.000
 61260, -9999.000
 61320, -9999.000
 61380, -9999.000
 61440, -9999.000
 61500, -9999.000
 61560, -9999.000
 61620, -9999.000
 61680, -9999.000
 61740, -9999.000
 61800, -9999.000
 61860, -9999.000
 61920, -9999.000
 61980, -9999.000
 62040, -9999.000
 62100, -9999.000
 62160, -9999.000
 62220, -9999.000
 62280, -9999.000
 62340, -9999.000
 62400, -9999.000
 62460, -9999.000
 62520, -9999.000
 62580, -9999.000
 62640, -9999.000
 62700, -9999.000
 62760, -9999.000
 62820, -9999.000
 62880, -9999.000
 62940, -9999.000
 63000, -9999.000
 63060, -9999.000
 63120, -9999.000
 63180, -9999.000
 63240, -9999.000
 63300, -9999.000
 63360, -9999.000
 63420, -9999.000
 63480, -9999.000
 63540, -9999.000
 63600, -9999.000
 63660, -9999.000
 63720, -9999.000
 63780, -9999.000
 63840, -9999.000
 63900, -9999.000
 63960, -9999.000
 64020, -9999.000
 64080, -9999.000
 64140, -9999.000
 64200, -9999.000
 64260, -9999.000
 64320, -9999.000
 64380, -9999.000
 64440, -9999.000
 64500, -9999.000
 64560, -9999.000
 64620, -9999.000
 64680, -9999.000
 64740, -9999.000
 64800, -9999.000
 64860, -9999.000
 64920, -9999.000
 64980, -9999.000
 65040, -9999.000
 65100, -9999.000
 65160, -9999.000
 65220, -9999.000
 65280, -9999.000
 65340, -9999.000
 65400, -9999.000
 65460, -9999.000
 65520, -9999.000
 65580, -9999.000
 65640, -9999.000
 65700, -9999.000
 65760, -9999.000
 65820, -9999.000
 65880, -9999.000
 65940, -9999.000
 66000, -9999.000
 66060, -9999.000
 66120, -9999.000
 66180, -9999.000
 66240, -9999.000
 66300, -9999.000
 66360, -9999.000
 66420, -9999.000
 66480, -9999.000
 66540, -9999.000
 66600, -9999.000
 66660, -9999.000
 66720, -9999.000
 66780, -9999.000
 66840, -9999.000
 66900, -9999.000
 66960, -9999.000
 67020, -9999.000
 67080, -9999.000
 67140, -9999.000
 67200, -9999.000
 67260, -9999.000
 67320, -9999.000
 67380, -9999.000
 67440, -9999.000
 67500, -9999.000
 67560, -9999.000
 67620, -9999.000
 67680, -9999.000
 67740, -9999.000
 67800, -9999.000
 67860, -9999.000
 67920, -9999.000
 67980, -9999.000
 68040, -9999.000
 68100, -9999.000
 68160, -9999.000
 68220, -9999.000
 68280, -9999.000
 68340, -9999.000
 68400, -9999.000
 68460, -9999.000
 68520, -9999.000
 68580, -9999.000
 68640, -9999.000
 68700, -9999.000
 68760, -9999.000
 68820, -9999.000
 68880, -9999.000
 68940, -9999.000
 69000, -9999.000
 69060, -9999.000
 69120, -9999.000
 69180, -9999.000
 69240, -9999.000
 69300, -9999.000
 69360, -9999.000
 69420, -9999.000
 69480, -9999.000
 69540, -9999.000
 69600, -9999.000
 69660, -9999.000
 69720, -9999.000
 69780, -9999.000
 69840, -9999.000
 69900, -9999.000
 69960, -9999.000
 70020, -9999.000
 70080, -9999.000
 70140, -9999.000
 70200, -9999.000
 70260, -9999.000
 70320, -9999.000
 70380, -9999.000
 70440, -9999.000
 70500, -9999.000
 70560, -9999.000
 70620, -9999.000
 70680, -9999.000
 70740, -9999.000
 70800, -9999.000
 70860, -9999.000
 70920, -9999.000
 70980, -9999.000
 71040, -9999.000
 71100, -9999.000
 71160, -9999.000
 71220, -9999.000
 71280, -9999.000
 71340, -9999.000
 71400, -9999.000
 71460, -9999.000
 71520, -9999.000
 71580, -9999.000
 71640, -9999.000
 71700, -9999.000
 71760, -9999.000
 71820, -9999.000
 71880, -9999.000
 71940, -9999.000
 72000, -9999.000
 72060, -9999.000
 72120, -9999.000
 72180, -9999.000
 72240, -9999.000
 72300, -9999.000
 72360, -9999.000
 72420, -9999.000
 72480, -9999.000
 72540, -9999.000
 72600, -9999.000
 72660, -9999.000
 72720, -9999.000
 72780, -9999.000
 72840, -9999.000
 72900, -9999.000
 72960, -9999.000
 73020, -9999.000
 73080, -9999.000
 73140, -9999.000
 73200, -9999.000
 73260, -9999.000
 73320, -9999.000
 73380, -9999.000
 73440, -9999.000
 73500, -9999.000
 73560, -9999.000
 73620, -9999.000
 73680, -9999.000
 73740, -9999.000
 73800, -9999.000
 73860, -9999.000
 73920, -9999.000
 73980, -9999.000
 74040, -9999.000
 74100, -9999.000
 74160, -9999.000
 74220, -9999.000
 74280, -9999.000
 74340, -9999.000
 74400, -9999.000
 74460, -9999.000
 74520, -9999.000
 74580, -9999.000
 74640, -9999.000
 74700, -9999.000
 74760, -9999.000
 74820, -9999.000
 74880, -9999.000
 74940, -9999.000
 75000, -9999.000
 75060, -9999.000
 75120, -9999.000
 75180, -9999.000
 75240, -9999.000
 75300, -9999.000
 75360, -9999.000
 75420, -9999.000
 75480, -9999.000
 75540, -9999.000
 75600, -9999.000
 75660, -9999.000
 75720, -9999.000
 75780, -9999.000
 75840, -9999.000
 75900, -9999.000
 75960, -9999.000
 76020, -9999.000
 76080, -9999.000
 76140, -9999.000
 76200, -9999.000
 76260, -9999.000
 76320, -9999.000
 76380, -9999.000
 76440, -9999.000
 76500, -9999.000
 76560, -9999.000
 76620, -9999.000
 76680, -9999.000
 76740, -9999.000
 76800, -9999.000
 76860, -9999.000
 76920, -9999.000
 76980, -9999.000
 77040, -9999.000
 77100, -9999.000
 77160, -9999.000
 77220, -9999.000
 77280, -9999.000
 77340, -9999.000
 77400, -9999.000
 77460, -9999.000
 77520, -9999.000
 77580, -9999.000
 77640, -9999.000
 77700, -9999.000
 77760, -9999.000
 77820, -9999.000
 77880, -9999.000
 77940, -9999.000
 78000, -9999.000
 78060, -9999.000
 78120, -9999.000
 78180, -9999.000
 78240, -9999.000
 78300, -9999.000
 78360, -9999.000
 78420, -9999.000
 78480, -9999.000
 78540, -9999.000
 78600, -9999.000
 78660, -9999.000
 78720, -9999.000
 78780, -9999.000
 78840, -9999.000
 78900, -9999.000
 78960, -9999.000
 79020, -9999.000
 79080, -9999.000
 79140, -9999.000
 79200, -9999.000
 79260, -9999.000
 79320, -9999.000
 79380, -9999.000
 79440, -9999.000
 79500, -9999.000
 79560, -9999.000
 79620, -9999.000
 79680, -9999.000
 79740, -9999.000
 79800, -9999.000
 79860, -9999.000
 79920, -9999.000
 79980, -9999.000
 80040, -9999.000
 80100, -9999.000
 80160, -9999.000
 80220, -9999.000
 80280, -9999.000
 80340, -9999.000
 80400, -9999.000
 80460, -9999.000
 80520, -9999.000
 80580, -9999.000
 80640, -9999.000
 80700, -9999.000
 80760, -9999.000
 80820, -9999.000
 80880, -9999.000
 80940, -9999.000
 81000, -9999.000
 81060, -9999.000
 81120, -9999.000
 81180, -9999.000
 81240, -9999.000
 81300, -9999.000
 81360, -9999.000
 81420, -9999.000
 81480, -9999.000
 81540, -9999.000
 81600, -9999.000
 81660, -9999.000
 81720, -9999.000
 81780, -9999.000
 81840, -9999.000
 81900, -9999.000
 81960, -9999.000
 82020, -9999.000
 82080, -9999.000
 82140, -9999.000
 82200, -9999.000
 82260, -9999.000
 82320, -9999.000
 82380, -9999.000
 82440, -9999.000
 82500, -9999.000
 82560, -9999.000
 82620, -9999.000
 82680, -9999.000
 82740, -9999.000
 82800, -9999.000
 82860, -9999.000
 82920, -9999.000
 82980, -9999.000
 83040, -9999.000
 83100, -9999.000
 83160, -9999.000
 83220, -9999.000
 83280, -9999.000
 83340, -9999.000
 83400, -9999.000
 83460, -9999.000
 83520, -9999.000
 83580, -9999.000
 83640, -9999.000
 83700, -9999.000
 83760, -9999.000
 83820, -9999.000
 83880, -9999.000
 83940, -9999.000
 84000, -9999.000
 84060, -9999.000
 84120, -9999.000
 84180, -9999.000
 84240, -9999.000
 84300, -9999.000
 84360, -9999.000
 84420, -9999.000
 84480, -9999.000
 84540, -9999.000
 84600, -9999.000
 84660, -9999.000
 84720, -9999.000
 84780, -9999.000
 84840, -9999.000
 84900, -9999.000
 84960, -9999.000
 85020, -9999.000
 85080, -9999.000
 85140, -9999.000
 85200, -9999.000
 85260, -9999.000
 85320, -9999.000
 85380, -9999.000
 85440, -9999.000
 85500, -9999.000
 85560, -9999.000
 85620, -9999.000
 85680, -9999.000
 85740, -9999.000
 85800, -9999.000
 85860, -9999.000
 85920, -9999.000
 85980, -9999.000
 86040, -9999.000
 86100, -9999.000
 86160, -9999.000
 86220, -9999.000
 86280, -9999.000
 86340, -9999.000
