33, 1001
Michael A Robinson, Chris Jernigan, Subi Thakali
NOAA ESRL Chemical Sciences Laboratory and CIRES, U. of Colorado
NOAA Iodide CIMS Instrument
USOS
1, 1
2024, 08, 12, 2024, 08, 13
1
starttime_UTC, seconds_past_midnight, seconds_of_day_since_00:00:00_UTC
1
1
-9999
HNO2_NOAACIMS, pptv, Gas_HNO2_InSitu_S_AVMR, 
0
18
PI_CONTACT_INFO: 325 Broadway, R/CSD 7, Boulder, Colorado 80305; michael.a.robinson@noaa.gov; chris.jernigan@noaa.gov;
PLATFORM: NOAA CSL Mobile Lab
LOCATION: SLC, Utah
ASSOCIATED_DATA: 1Hz data also available on request.
INSTRUMENT_INFO: NOAA I- ToF CIMS
DATA_INFO: All data in parts per trillion by volume (pptv). 1 Hz data is available upon request.
UNCERTAINTY: TBD
ULOD_FLAG: -7777
ULOD_VALUE: N/A
LLOD_FLAG: -8888
LLOD_VALUE: N/A
DM_CONTACT_INFO: Nathan Howard; nathan.h.howard@noaa.gov
PROJECT_INFO: USOS, summer 2024. https://csl.noaa.gov/groups/csl7/measurements/2024usos/
STIPULATIONS_ON_USE: Users are strongly encouraged to contact the PI for proper data usage.
OTHER_COMMENTS: 
REVISION: RA
RA: Preliminary Data; For in-field use only
starttime_UTC, HNO2_NOAACIMS
     0, -9999.000
    60, -9999.000
   120, -9999.000
   180, -9999.000
   240, 39.473
   300, 28.913
   360, 21.338
   420, 30.306
   480, 27.220
   540, 39.144
   600, -9999.000
   660, 26.133
   720, 20.720
   780, 20.740
   840, 24.260
   900, 20.431
   960, 24.725
  1020, 25.114
  1080, 30.688
  1140, 20.728
  1200, 20.971
  1260, 19.802
  1320, 26.388
  1380, 20.178
  1440, 26.172
  1500, 33.938
  1560, 19.940
  1620, 12.555
  1680, 18.498
  1740,  8.450
  1800, 15.458
  1860, 12.288
  1920, 21.966
  1980, 19.377
  2040, 16.244
  2100, 19.439
  2160, 11.268
  2220, 21.350
  2280, 16.596
  2340, 26.274
  2400, 28.844
  2460, 32.676
  2520, 20.056
  2580, 15.448
  2640, 20.068
  2700, 29.476
  2760, 26.679
  2820, 28.541
  2880, 25.457
  2940, 17.913
  3000, 12.196
  3060, 56.599
  3120, 13.122
  3180, 15.670
  3240, 19.198
  3300, 20.590
  3360,  9.604
  3420,  9.876
  3480, 16.305
  3540, 21.312
  3600, 22.971
  3660, 12.281
  3720, 15.389
  3780,  6.316
  3840, 10.651
  3900, 13.971
  3960, 12.127
  4020, 16.389
  4080, 22.118
  4140, 12.100
  4200,  5.789
  4260, -9999.000
  4320, 16.061
  4380, 16.504
  4440,  9.182
  4500, 13.927
  4560, 17.238
  4620, 12.070
  4680, 19.593
  4740, 10.998
  4800, 37.373
  4860, 32.942
  4920, 76.446
  4980, 43.273
  5040, 24.295
  5100, 14.595
  5160, 24.006
  5220, 18.619
  5280, 30.681
  5340, 24.137
  5400, 68.656
  5460, 78.952
  5520, 46.809
  5580, 37.560
  5640, 40.330
  5700, 21.427
  5760, 13.708
  5820, 11.827
  5880, 15.177
  5940,  5.428
  6000, 11.980
  6060,  9.457
  6120, -9999.000
  6180, 11.175
  6240, 22.756
  6300, 23.168
  6360, 23.995
  6420, 30.232
  6480, 38.475
  6540, 34.822
  6600, 11.736
  6660,  5.715
  6720, 13.443
  6780,  1.000
  6840,  6.059
  6900, 26.488
  6960, 38.382
  7020, 25.023
  7080, 42.444
  7140, 38.483
  7200, 45.528
  7260, 62.409
  7320, 82.165
  7380, 63.561
  7440, 48.245
  7500, 58.961
  7560, 58.862
  7620, 52.144
  7680, 42.712
  7740, 41.461
  7800, 62.597
  7860, 46.655
  7920, 54.685
  7980, -9999.000
  8040, 63.001
  8100, 84.611
  8160, 82.778
  8220, 85.963
  8280, 89.619
  8340, 76.568
  8400, 76.129
  8460, 98.045
  8520, 87.662
  8580, 98.106
  8640, 92.513
  8700, 123.402
  8760, 123.428
  8820, 115.166
  8880, 129.679
  8940, 126.984
  9000, 167.601
  9060, 182.580
  9120, 206.391
  9180, 180.814
  9240, 129.982
  9300, 152.749
  9360, 82.590
  9420, 70.160
  9480, 75.824
  9540, 59.975
  9600, 42.837
  9660, 47.839
  9720, 42.381
  9780, 36.494
  9840, 34.658
  9900, 43.233
  9960, 45.046
 10020, 35.259
 10080, 36.592
 10140, 36.421
 10200, 34.990
 10260, 37.332
 10320, 38.538
 10380, 32.371
 10440, 39.748
 10500, 31.533
 10560, 35.428
 10620, 37.971
 10680, 38.268
 10740, 32.004
 10800, 30.463
 10860, 24.928
 10920, 30.650
 10980, 28.665
 11040, 28.290
 11100, 24.798
 11160, 21.740
 11220, 23.296
 11280, 19.560
 11340, 25.239
 11400, 23.327
 11460, 22.273
 11520, 29.536
 11580, 27.593
 11640, -9999.000
 11700, 21.816
 11760, 34.236
 11820, 28.423
 11880, 35.233
 11940, 40.722
 12000, 20.069
 12060, 26.326
 12120, 29.390
 12180, 32.332
 12240, 35.019
 12300, 33.427
 12360, 35.353
 12420, 39.071
 12480, 43.391
 12540, 41.362
 12600, 39.762
 12660, 37.990
 12720, 35.602
 12780, 46.706
 12840, 40.424
 12900, 45.411
 12960, 33.602
 13020, 40.389
 13080, 39.982
 13140, 35.052
 13200, 48.844
 13260, 44.411
 13320, 53.580
 13380, 42.356
 13440, 46.154
 13500, 53.481
 13560, 47.757
 13620, 47.006
 13680, 32.754
 13740, 29.852
 13800, 38.361
 13860, 32.219
 13920, 42.219
 13980, 49.234
 14040, 41.418
 14100, 38.787
 14160, 34.978
 14220, 37.432
 14280, 39.908
 14340, 48.134
 14400, 38.265
 14460, 39.833
 14520, 46.010
 14580, 38.932
 14640, 46.439
 14700, 44.724
 14760, 40.148
 14820, 47.580
 14880, 44.206
 14940, 54.303
 15000, 38.950
 15060, 52.705
 15120, 44.637
 15180, 52.567
 15240, 51.645
 15300, 45.757
 15360, -9999.000
 15420, 43.527
 15480, 55.961
 15540, 51.426
 15600, 39.752
 15660, 46.611
 15720, 34.023
 15780, 43.017
 15840, 38.295
 15900, 29.659
 15960, 28.744
 16020, 28.328
 16080, 27.376
 16140, 30.732
 16200, 32.387
 16260, 40.890
 16320, 41.481
 16380, 49.276
 16440, 42.010
 16500, 36.399
 16560, 52.013
 16620, 48.270
 16680, 45.042
 16740, 60.870
 16800, 41.632
 16860, 41.216
 16920, 54.042
 16980, 55.070
 17040, 57.056
 17100, 46.922
 17160, 51.840
 17220, 37.096
 17280, 49.647
 17340, 56.625
 17400, 48.180
 17460, 45.453
 17520, 49.226
 17580, 53.430
 17640, 59.257
 17700, 55.866
 17760, 48.683
 17820, 57.094
 17880, 56.664
 17940, 58.119
 18000, 61.298
 18060, 62.302
 18120, 58.072
 18180, 56.010
 18240, 61.409
 18300, 64.113
 18360, 68.405
 18420, 68.832
 18480, 63.010
 18540, 67.774
 18600, 73.650
 18660, 56.845
 18720, 58.384
 18780, 59.343
 18840, 53.543
 18900, 62.747
 18960, 52.625
 19020, 42.408
 19080, 68.123
 19140, 49.719
 19200, 57.227
 19260, 61.983
 19320, 57.448
 19380, 67.950
 19440, 53.113
 19500, 49.560
 19560, 61.911
 19620, 64.256
 19680, 50.464
 19740, 56.397
 19800, 55.890
 19860, 52.516
 19920, 54.620
 19980, 45.145
 20040, 53.707
 20100, 49.850
 20160, 56.835
 20220, 70.791
 20280, 50.375
 20340, 44.617
 20400, 57.444
 20460, 49.088
 20520, 50.517
 20580, 57.885
 20640, 45.345
 20700, 47.945
 20760, 43.837
 20820, 46.738
 20880, 44.715
 20940, 45.063
 21000, 51.899
 21060, 56.231
 21120, 47.294
 21180, 45.587
 21240, 45.573
 21300, 44.378
 21360, 54.827
 21420, 46.033
 21480, 47.559
 21540, 45.296
 21600, 43.621
 21660, 40.401
 21720, 42.803
 21780, 49.882
 21840, 47.877
 21900, 47.471
 21960, 45.647
 22020, 44.736
 22080, 45.539
 22140, 38.118
 22200, 42.190
 22260, 49.529
 22320, 36.806
 22380, 44.996
 22440, 44.902
 22500, 40.389
 22560, 46.614
 22620, 40.219
 22680, 42.004
 22740, -9999.000
 22800, 30.672
 22860, 34.149
 22920, 40.045
 22980, 34.254
 23040, 37.586
 23100, 43.310
 23160, 45.888
 23220, 49.219
 23280, 45.546
 23340, 42.055
 23400, 50.089
 23460, 35.833
 23520, 34.300
 23580, 48.020
 23640, 45.022
 23700, 42.201
 23760, 46.365
 23820, 48.159
 23880, 49.241
 23940, 63.610
 24000, 53.365
 24060, 55.335
 24120, 52.016
 24180, 61.989
 24240, 58.336
 24300, 46.353
 24360, 63.461
 24420, 58.973
 24480, 42.975
 24540, 44.139
 24600, -9999.000
 24660, 57.481
 24720, 52.966
 24780, 57.882
 24840, 44.245
 24900, 39.991
 24960, 42.423
 25020, 41.350
 25080, 51.899
 25140, 46.562
 25200, 48.258
 25260, 59.876
 25320, 46.403
 25380, 42.584
 25440, 57.305
 25500, 50.150
 25560, 56.087
 25620, 52.932
 25680, 65.014
 25740, 68.080
 25800, 51.776
 25860, 50.968
 25920, 64.530
 25980, 53.416
 26040, 62.950
 26100, 59.665
 26160, 62.008
 26220, 73.948
 26280, 51.309
 26340, 57.431
 26400, 61.286
 26460, -9999.000
 26520, 60.356
 26580, 60.540
 26640, 48.845
 26700, 53.294
 26760, 51.940
 26820, 51.466
 26880, 56.135
 26940, 60.828
 27000, 59.399
 27060, 61.442
 27120, 51.952
 27180, 54.291
 27240, 51.342
 27300, 47.616
 27360, 64.493
 27420, 73.852
 27480, 55.498
 27540, 66.072
 27600, 64.987
 27660, 66.621
 27720, 78.478
 27780, 75.785
 27840, 65.739
 27900, 77.256
 27960, 73.687
 28020, 51.735
 28080, 64.020
 28140, 62.842
 28200, 58.979
 28260, 70.515
 28320, 39.054
 28380, 45.568
 28440, 61.681
 28500, 62.454
 28560, 72.774
 28620, 59.824
 28680, 48.215
 28740, 52.591
 28800, 51.014
 28860, 49.637
 28920, 61.226
 28980, 80.214
 29040, 41.988
 29100, 49.209
 29160, 43.808
 29220, 48.413
 29280, 47.103
 29340, 29.999
 29400, 36.929
 29460, 19.263
 29520, 18.434
 29580, 17.064
 29640, 23.354
 29700, 19.066
 29760, 25.661
 29820, 19.427
 29880, 22.067
 29940, 32.433
 30000, 18.558
 30060, 19.613
 30120, -9999.000
 30180, 19.121
 30240, 25.499
 30300, 12.926
 30360, 26.319
 30420, 26.102
 30480, 26.702
 30540, 27.955
 30600, 18.861
 30660, 18.376
 30720, 20.989
 30780, 29.330
 30840, 21.016
 30900, 27.427
 30960, 21.167
 31020, 18.570
 31080, 28.681
 31140, 22.795
 31200, 22.095
 31260, 28.581
 31320, 26.156
 31380, 27.879
 31440, 20.238
 31500, 22.073
 31560, 22.492
 31620, 20.342
 31680, 32.904
 31740, 30.050
 31800, 34.156
 31860, 37.826
 31920, 28.569
 31980, -9999.000
 32040, 35.114
 32100, 24.857
 32160, 31.493
 32220, 29.711
 32280, 30.970
 32340, 39.722
 32400, 37.916
 32460, 41.875
 32520, 52.485
 32580, 52.274
 32640, 67.592
 32700, 79.360
 32760, 77.756
 32820, 65.200
 32880, 67.038
 32940, 58.103
 33000, 68.001
 33060, 73.161
 33120, 66.520
 33180, 65.661
 33240, 65.566
 33300, 56.770
 33360, 70.298
 33420, 77.341
 33480, 65.997
 33540, 66.312
 33600, 65.823
 33660, 59.672
 33720, 61.545
 33780, 70.772
 33840, -9999.000
 33900, 65.456
 33960, 65.756
 34020, 60.009
 34080, 66.423
 34140, 75.599
 34200, 64.605
 34260, 65.227
 34320, 65.221
 34380, 72.358
 34440, 74.088
 34500, 81.400
 34560, 73.055
 34620, 71.504
 34680, 76.763
 34740, 85.556
 34800, 97.334
 34860, 107.756
 34920, 116.261
 34980, 105.982
 35040, 108.332
 35100, 91.229
 35160, 100.288
 35220, 116.430
 35280, 95.243
 35340, 81.666
 35400, 87.362
 35460, 73.846
 35520, 76.405
 35580, 60.437
 35640, 70.023
 35700, 94.307
 35760, 109.337
 35820, 112.608
 35880, 92.413
 35940, 61.780
 36000, 58.523
 36060, 50.375
 36120, 70.770
 36180, 73.913
 36240, 57.126
 36300, 73.828
 36360, 75.299
 36420, 64.309
 36480, 65.757
 36540, 68.914
 36600, 79.882
 36660, 58.606
 36720, 73.240
 36780, 71.991
 36840, 76.574
 36900, 93.703
 36960, 89.900
 37020, 84.863
 37080, 92.484
 37140, 114.116
 37200, 89.998
 37260, 84.909
 37320, 77.247
 37380, 62.832
 37440, 71.597
 37500, -9999.000
 37560, 77.714
 37620, 76.516
 37680, 66.471
 37740, 58.353
 37800, 64.765
 37860, 71.924
 37920, 56.644
 37980, 61.537
 38040, 56.799
 38100, 55.133
 38160, 66.346
 38220, 67.486
 38280, 75.055
 38340, 56.033
 38400, 59.150
 38460, 56.014
 38520, 64.784
 38580, 74.985
 38640, 60.369
 38700, 61.047
 38760, 66.975
 38820, 63.624
 38880, 65.540
 38940, 67.069
 39000, 62.388
 39060, 63.613
 39120, 59.879
 39180, 66.013
 39240, 76.372
 39300, 71.519
 39360, 67.432
 39420, 64.869
 39480, 81.360
 39540, 68.186
 39600, 61.457
 39660, 61.001
 39720, 54.462
 39780, 53.061
 39840, 57.396
 39900, 47.305
 39960, 63.435
 40020, 52.100
 40080, 58.326
 40140, 48.003
 40200, 49.719
 40260, 44.592
 40320, 50.807
 40380, 48.376
 40440, 48.916
 40500, 43.968
 40560, 46.114
 40620, 41.582
 40680, 49.698
 40740, 52.420
 40800, 45.073
 40860, 36.041
 40920, 48.295
 40980, 58.684
 41040, 49.619
 41100, 44.445
 41160, 67.931
 41220, -9999.000
 41280, 58.924
 41340, 57.275
 41400, 50.402
 41460, 54.017
 41520, 58.092
 41580, 61.138
 41640, 65.663
 41700, 58.505
 41760, 52.115
 41820, 55.524
 41880, 52.419
 41940, 50.204
 42000, 59.763
 42060, 66.908
 42120, 46.698
 42180, 41.466
 42240, 53.452
 42300, 60.637
 42360, 52.222
 42420, 56.519
 42480, 53.910
 42540, 48.032
 42600, 56.539
 42660, 56.227
 42720, 47.686
 42780, 59.289
 42840, 62.590
 42900, 61.389
 42960, 58.450
 43020, 51.349
 43080, 63.560
 43140, 48.178
 43200, 55.739
 43260, 62.691
 43320, 50.554
 43380, 57.202
 43440, 55.368
 43500, 59.178
 43560, 67.708
 43620, 63.832
 43680, 63.805
 43740, 53.804
 43800, 79.380
 43860, 79.086
 43920, 71.910
 43980, 84.583
 44040, 69.862
 44100, 65.276
 44160, 89.847
 44220, 83.612
 44280, 78.782
 44340, 86.643
 44400, 85.698
 44460, 82.417
 44520, 77.082
 44580, 94.823
 44640, 89.506
 44700, 93.461
 44760, 139.391
 44820, 89.424
 44880, 98.756
 44940, 119.004
 45000, 102.076
 45060, 102.345
 45120, 95.303
 45180, 93.036
 45240, 105.181
 45300, 118.000
 45360, 110.713
 45420, 114.600
 45480, 110.532
 45540, 107.186
 45600, 103.485
 45660, 105.946
 45720, 96.715
 45780, 93.103
 45840, 95.680
 45900, 147.891
 45960, 104.478
 46020, 94.804
 46080, 101.965
 46140, 125.870
 46200, 106.628
 46260, 97.666
 46320, 79.413
 46380, 72.403
 46440, 89.539
 46500, 85.502
 46560, 104.421
 46620, 116.061
 46680, 87.505
 46740, 88.287
 46800, 102.709
 46860, 109.205
 46920, 100.952
 46980, 78.993
 47040, 102.255
 47100, 83.111
 47160, 81.428
 47220, 84.927
 47280, 69.984
 47340, 63.654
 47400, 69.904
 47460, 58.612
 47520, 65.853
 47580, 55.950
 47640, 65.819
 47700, 51.870
 47760, 77.094
 47820, 66.166
 47880, 53.336
 47940, 61.567
 48000, 59.435
 48060, 48.793
 48120, 53.826
 48180, 61.200
 48240, 47.639
 48300, 40.779
 48360, 58.501
 48420, 65.393
 48480, 65.002
 48540, 60.567
 48600, -9999.000
 48660, 44.363
 48720, 52.700
 48780, 53.431
 48840, 76.898
 48900, 61.833
 48960, 59.700
 49020, 84.277
 49080, 87.607
 49140, 88.895
 49200, 94.001
 49260, 69.493
 49320, 49.622
 49380, 55.609
 49440, 78.178
 49500, 79.776
 49560, 77.088
 49620, 88.406
 49680, 108.081
 49740, 90.359
 49800, 96.336
 49860, 110.563
 49920, 106.084
 49980, 127.974
 50040, 117.686
 50100, 118.406
 50160, 146.891
 50220, 131.986
 50280, 108.995
 50340, 123.604
 50400, 113.593
 50460, -9999.000
 50520, 83.207
 50580, 87.087
 50640, 90.366
 50700, 95.874
 50760, 65.039
 50820, 57.358
 50880, 57.243
 50940, 75.950
 51000, 55.342
 51060, 65.105
 51120, 72.270
 51180, 72.007
 51240, 83.783
 51300, 86.419
 51360, 78.624
 51420, 66.826
 51480, 54.025
 51540, 51.431
 51600, 110.445
 51660, 90.393
 51720, 107.431
 51780, 120.185
 51840, 124.555
 51900, 115.824
 51960, 73.171
 52020, 81.147
 52080, 97.097
 52140, 72.822
 52200, 88.806
 52260, 108.442
 52320, -9999.000
 52380, 128.557
 52440, 90.851
 52500, 105.217
 52560, 92.261
 52620, 109.811
 52680, 96.366
 52740, 71.685
 52800, 58.548
 52860, 66.059
 52920, 61.089
 52980, 48.349
 53040, 54.146
 53100, 47.486
 53160, 54.464
 53220, 72.402
 53280, 55.739
 53340, 49.215
 53400, 61.579
 53460, 76.022
 53520, 67.060
 53580, 57.452
 53640, 61.920
 53700, 69.039
 53760, 60.880
 53820, 74.456
 53880, 81.086
 53940, 64.462
 54000, 73.455
 54060, 100.867
 54120, 104.672
 54180, 114.286
 54240, 93.533
 54300, 107.323
 54360, 110.773
 54420, 106.318
 54480, 116.036
 54540, 106.422
 54600, 83.898
 54660, 94.119
 54720, 69.952
 54780, 80.419
 54840, 121.316
 54900, 51.862
 54960, 49.529
 55020, 57.165
 55080, 52.342
 55140, 49.125
 55200, 36.419
 55260, 34.061
 55320, 41.267
 55380, 24.569
 55440, 30.355
 55500, 36.336
 55560, 39.571
 55620, 43.697
 55680, -9999.000
 55740, -9999.000
 55800, -9999.000
 55860, -9999.000
 55920, -9999.000
 55980, -9999.000
 56040, -9999.000
 56100, -9999.000
 56160, -9999.000
 56220, -9999.000
 56280, -9999.000
 56340, -9999.000
 56400, -9999.000
 56460, -9999.000
 56520, -9999.000
 56580, -9999.000
 56640, -9999.000
 56700, -9999.000
 56760, -9999.000
 56820, -9999.000
 56880, -9999.000
 56940, -9999.000
 57000, -9999.000
 57060, -9999.000
 57120, -9999.000
 57180, -9999.000
 57240, -9999.000
 57300, -9999.000
 57360, -9999.000
 57420, -9999.000
 57480, -9999.000
 57540, -9999.000
 57600, -9999.000
 57660, -9999.000
 57720, -9999.000
 57780, -9999.000
 57840, -9999.000
 57900, -9999.000
 57960, -9999.000
 58020, 80.220
 58080, 73.428
 58140, 56.020
 58200, 49.710
 58260, 76.684
 58320, 79.117
 58380, 97.635
 58440, 135.994
 58500, 117.875
 58560, 72.051
 58620, 120.693
 58680, 73.405
 58740, 86.865
 58800, 81.142
 58860, 59.356
 58920, 65.493
 58980, 88.571
 59040, 68.839
 59100, 66.134
 59160, 57.480
 59220, 57.183
 59280, 59.756
 59340, 70.631
 59400, 68.954
 59460, 62.261
 59520, 53.243
 59580, 54.623
 59640, -9999.000
 59700, 72.945
 59760, 66.517
 59820, 67.574
 59880, 53.744
 59940, 67.616
 60000, 52.942
 60060, 70.535
 60120, 73.974
 60180, 56.436
 60240, 64.407
 60300, 62.565
 60360, 64.003
 60420, 55.590
 60480, 68.837
 60540, 60.819
 60600, 67.527
 60660, 61.119
 60720, 51.057
 60780, 46.437
 60840, 54.152
 60900, 55.469
 60960, 45.280
 61020, 47.924
 61080, 48.021
 61140, 50.354
 61200, 48.920
 61260, 58.998
 61320, 50.627
 61380, 46.988
 61440, 50.569
 61500, -9999.000
 61560, 48.759
 61620, 66.605
 61680, 53.182
 61740, 55.829
 61800, 51.909
 61860, 53.010
 61920, 57.906
 61980, 47.003
 62040, 57.649
 62100, 49.074
 62160, 58.273
 62220, 45.870
 62280, 56.122
 62340, 61.179
 62400, 45.415
 62460, 43.890
 62520, 60.811
 62580, 52.584
 62640, 69.092
 62700, 63.312
 62760, 62.418
 62820, 50.133
 62880, 41.724
 62940, 44.523
 63000, 66.729
 63060, 67.142
 63120, 70.769
 63180, 52.575
 63240, 57.172
 63300, 60.735
 63360, -9999.000
 63420, 60.255
 63480, 60.969
 63540, 57.762
 63600, 56.898
 63660, 59.276
 63720, 54.242
 63780, 51.078
 63840, 47.693
 63900, 40.782
 63960, 33.962
 64020, 32.468
 64080, 36.955
 64140, 50.833
 64200, 50.048
 64260, 45.099
 64320, 35.851
 64380, 47.917
 64440, 38.095
 64500, 46.589
 64560, 47.710
 64620, 52.310
 64680, 40.626
 64740, 47.867
 64800, 46.235
 64860, 58.923
 64920, 56.083
 64980, 50.112
 65040, 43.585
 65100, 53.973
 65160, 54.655
 65220, 55.488
 65280, 55.123
 65340, 65.048
 65400, 49.798
 65460, 45.839
 65520, 37.769
 65580, 37.730
 65640, 32.506
 65700, 37.569
 65760, 40.905
 65820, 36.427
 65880, 43.264
 65940, 43.954
 66000, 41.199
 66060, 40.481
 66120, 40.350
 66180, 47.551
 66240, 49.815
 66300, 56.339
 66360, 57.728
 66420, 62.097
 66480, 57.436
 66540, 53.264
 66600, 52.568
 66660, 71.459
 66720, 73.234
 66780, 67.381
 66840, 62.742
 66900, 72.979
 66960, 69.687
 67020, -9999.000
 67080, 60.671
 67140, 62.669
 67200, 84.198
 67260, 73.803
 67320, 73.198
 67380, 67.301
 67440, 63.614
 67500, 71.231
 67560, 54.599
 67620, 64.497
 67680, 94.145
 67740, 58.735
 67800, 54.889
 67860, 52.062
 67920, 55.460
 67980, 68.044
 68040, 68.556
 68100, 64.509
 68160, 52.322
 68220, 57.975
 68280, 72.901
 68340, 74.522
 68400, 68.715
 68460, 63.857
 68520, 57.139
 68580, 60.588
 68640, 55.611
 68700, 46.034
 68760, 41.141
 68820, 46.210
 68880, -9999.000
 68940, 34.728
 69000, 33.145
 69060, 30.545
 69120, 36.844
 69180, 40.309
 69240, 37.827
 69300, 32.260
 69360, 26.443
 69420, 24.531
 69480, 27.565
 69540, 23.562
 69600, 19.292
 69660, 26.563
 69720, 28.724
 69780, 21.729
 69840, 33.722
 69900, 48.540
 69960, 57.718
 70020, 62.752
 70080, 88.246
 70140, 108.557
 70200, 63.493
 70260, 58.630
 70320, 45.065
 70380, 49.910
 70440, 49.434
 70500, 53.011
 70560, 56.326
 70620, 46.813
 70680, 46.393
 70740, -9999.000
 70800, 36.139
 70860, 39.878
 70920, 42.833
 70980, 41.045
 71040, 43.812
 71100, 39.759
 71160, 35.906
 71220, 33.050
 71280, 47.129
 71340, 50.220
 71400, 52.902
 71460, 64.664
 71520, 65.750
 71580, 65.504
 71640, 65.934
 71700, 51.175
 71760, 63.868
 71820, 61.876
 71880, 50.475
 71940, 41.251
 72000, 37.791
 72060, 36.483
 72120, 41.403
 72180, 42.064
 72240, 45.134
 72300, 36.774
 72360, 41.295
 72420, 36.690
 72480, 38.617
 72540, 36.827
 72600, 42.959
 72660, 34.570
 72720, 34.887
 72780, 41.223
 72840, 41.406
 72900, 42.743
 72960, 50.922
 73020, 44.803
 73080, 48.438
 73140, 54.779
 73200, 48.695
 73260, 45.793
 73320, 56.864
 73380, 56.947
 73440, 47.496
 73500, 51.146
 73560, 58.899
 73620, 51.155
 73680, 49.770
 73740, 48.220
 73800, 44.992
 73860, 42.639
 73920, 49.663
 73980, 45.249
 74040, 49.539
 74100, 41.839
 74160, 48.509
 74220, 45.145
 74280, 47.144
 74340, 47.740
 74400, 39.753
 74460, 37.985
 74520, 32.396
 74580, 29.597
 74640, 36.072
 74700, 39.643
 74760, 39.555
 74820, 45.860
 74880, 48.800
 74940, 54.114
 75000, 52.465
 75060, 40.812
 75120, 37.509
 75180, 36.585
 75240, 39.707
 75300, 43.397
 75360, 37.993
 75420, 36.516
 75480, 43.776
 75540, 42.308
 75600, 40.326
 75660, 35.832
 75720, 49.140
 75780, 43.984
 75840, 46.370
 75900, 46.822
 75960, 45.530
 76020, 54.322
 76080, 50.121
 76140, 50.047
 76200, 51.493
 76260, 52.043
 76320, 60.466
 76380, 84.648
 76440, 81.816
 76500, 94.380
 76560, 103.323
 76620, 94.683
 76680, 90.839
 76740, 101.459
 76800, 91.804
 76860, 88.801
 76920, 85.967
 76980, 89.265
 77040, 67.571
 77100, 62.609
 77160, 50.673
 77220, 39.963
 77280, 40.757
 77340, 37.374
 77400, 46.904
 77460, 42.429
 77520, 42.529
 77580, 41.347
 77640, 44.263
 77700, 61.267
 77760, 62.314
 77820, 54.669
 77880, 76.378
 77940, 74.149
 78000, 79.372
 78060, 101.726
 78120, -9999.000
 78180, 130.100
 78240, 113.862
 78300, 160.368
 78360, 193.047
 78420, 208.944
 78480, 217.786
 78540, 237.162
 78600, 235.856
 78660, 229.503
 78720, 220.007
 78780, 193.140
 78840, 198.995
 78900, 194.081
 78960, 219.625
 79020, 191.779
 79080, 192.911
 79140, 179.859
 79200, 185.876
 79260, 231.180
 79320, 185.292
 79380, 189.358
 79440, 195.426
 79500, 182.007
 79560, 193.181
 79620, 178.210
 79680, 176.037
 79740, 193.497
 79800, 152.784
 79860, 154.686
 79920, 154.893
 79980, -9999.000
 80040, 168.643
 80100, 157.741
 80160, 181.192
 80220, 190.640
 80280, 159.378
 80340, 164.503
 80400, 171.602
 80460, 154.549
 80520, 183.676
 80580, 139.697
 80640, 155.382
 80700, 168.861
 80760, 177.436
 80820, 179.429
 80880, 202.485
 80940, 219.170
 81000, 224.533
 81060, 230.646
 81120, 209.566
 81180, 247.744
 81240, 236.692
 81300, 223.449
 81360, 205.269
 81420, 209.727
 81480, 178.448
 81540, 181.882
 81600, 156.733
 81660, 140.969
 81720, 154.125
 81780, 183.694
 81840, -9999.000
 81900, 129.811
 81960, 123.266
 82020, 116.952
 82080, 112.654
 82140, 105.116
 82200, 104.764
 82260, 117.557
 82320, 109.029
 82380, 104.095
 82440, 103.520
 82500, 112.496
 82560, 113.020
 82620, 106.162
 82680, 105.821
 82740, 96.367
 82800, 87.194
 82860, 80.143
 82920, 82.981
 82980, 103.594
 83040, 82.765
 83100, 81.593
 83160, 84.228
 83220, 83.350
 83280, 78.242
 83340, 65.644
 83400, 92.705
 83460, 85.690
 83520, 70.110
 83580, 70.397
 83640, 72.714
 83700, 73.679
 83760, 64.672
 83820, 72.606
 83880, 59.484
 83940, 60.513
 84000, 57.386
 84060, 61.900
 84120, 58.616
 84180, 50.224
 84240, 54.158
 84300, 77.628
 84360, 85.514
 84420, 73.834
 84480, 75.073
 84540, 72.334
 84600, 60.008
 84660, 71.768
 84720, 74.753
 84780, 67.909
 84840, 62.311
 84900, 62.440
 84960, 65.566
 85020, 61.101
 85080, 75.438
 85140, 81.388
 85200, 68.654
 85260, 63.373
 85320, 58.852
 85380, 58.643
 85440, 63.245
 85500, -9999.000
 85560, 69.678
 85620, 64.257
 85680, 62.242
 85740, 65.090
 85800, 67.227
 85860, 65.398
 85920, 66.179
 85980, 64.624
 86040, 63.264
 86100, 60.200
 86160, 61.205
 86220, 58.384
 86280, 67.240
 86340, 77.584
