34, 1001
Michael A Robinson, Chris Jernigan, Subi Thakali
NOAA ESRL Chemical Sciences Laboratory and CIRES, U. of Colorado
NOAA Iodide CIMS Instrument
USOS
1, 1
2024, 07, 19, 2024, 07, 20
0
starttime_UTC, seconds_past_midnight, seconds_of_day_since_00:00:00_UTC
1
1
-9999
HNO2_NOAACIMS, pptv, Gas_HNO2_InSitu_S_AVMR
1
N/A
18
PI_CONTACT_INFO: 325 Broadway, R/CSD 7, Boulder, Colorado 80305; michael.a.robinson@noaa.gov; chris.jernigan@noaa.gov;
PLATFORM: NOAA CSL Mobile Lab
LOCATION: SLC, Utah
ASSOCIATED_DATA: 1Hz data also available on request.
INSTRUMENT_INFO: NOAA I- ToF CIMS
DATA_INFO: Units: pptv
UNCERTAINTY: tbd
ULOD_FLAG: -7777
ULOD_VALUE: N/A
LLOD_FLAG: -8888
LLOD_VALUE: N/A
DM_CONTACT_INFO: Nathan Howard; nathan.h.howard@noaa.gov
PROJECT_INFO: USOS, summer 2024. https://csl.noaa.gov/groups/csl7/measurements/2024usos/
STIPULATIONS_ON_USE: only the USOS science team is allowed to use this data
OTHER_COMMENTS: Field data; Data are averaged to 1 minute intervals. Stationary data collected from a 10 ft tower on top of the mobile lab
REVISION: RA
RA: Preliminary Data; For in-field use only
starttime_UTC, HNO2_NOAACIMS
0,-9999.000
60,-9999.000
120,-9999.000
180,-9999.000
240,-9999.000
300,-9999.000
360,-9999.000
420,-9999.000
480,-9999.000
540,-9999.000
600,-9999.000
660,-9999.000
720,-9999.000
780,-9999.000
840,-9999.000
900,-9999.000
960,-9999.000
1020,-9999.000
1080,-9999.000
1140,-9999.000
1200,-9999.000
1260,-9999.000
1320,-9999.000
1380,-9999.000
1440,-9999.000
1500,-9999.000
1560,-9999.000
1620,-9999.000
1680,-9999.000
1740,-9999.000
1800,-9999.000
1860,-9999.000
1920,-9999.000
1980,-9999.000
2040,-9999.000
2100,-9999.000
2160,-9999.000
2220,-9999.000
2280,-9999.000
2340,-9999.000
2400,-9999.000
2460,-9999.000
2520,-9999.000
2580,-9999.000
2640,-9999.000
2700,-9999.000
2760,-9999.000
2820,-9999.000
2880,-9999.000
2940,-9999.000
3000,-9999.000
3060,-9999.000
3120,-9999.000
3180,-9999.000
3240,-9999.000
3300,-9999.000
3360,-9999.000
3420,-9999.000
3480,-9999.000
3540,-9999.000
3600,-9999.000
3660,-9999.000
3720,-9999.000
3780,-9999.000
3840,-9999.000
3900,-9999.000
3960,-9999.000
4020,-9999.000
4080,-9999.000
4140,-9999.000
4200,-9999.000
4260,-9999.000
4320,-9999.000
4380,-9999.000
4440,-9999.000
4500,4.143
4560,11.829
4620,10.891
4680,10.043
4740,11.958
4800,12.593
4860,13.565
4920,22.721
4980,10.084
5040,15.239
5100,15.042
5160,10.708
5220,17.504
5280,14.497
5340,18.396
5400,19.085
5460,20.772
5520,23.730
5580,30.038
5640,22.949
5700,28.177
5760,37.512
5820,34.153
5880,34.327
5940,32.974
6000,32.633
6060,33.604
6120,28.040
6180,44.315
6240,35.360
6300,37.940
6360,28.755
6420,20.953
6480,27.564
6540,35.015
6600,30.011
6660,34.794
6720,34.631
6780,58.208
6840,23.978
6900,23.568
6960,36.107
7020,26.706
7080,34.413
7140,34.863
7200,25.443
7260,19.537
7320,21.754
7380,26.527
7440,28.644
7500,21.921
7560,26.797
7620,19.018
7680,23.719
7740,21.611
7800,20.018
7860,19.917
7920,23.229
7980,19.745
8040,21.828
8100,13.882
8160,15.915
8220,12.499
8280,10.378
8340,7.412
8400,8.792
8460,8.688
8520,10.167
8580,8.011
8640,8.236
8700,10.741
8760,9.673
8820,27.668
8880,24.411
8940,16.879
9000,16.103
9060,16.528
9120,10.847
9180,24.843
9240,23.702
9300,29.219
9360,27.203
9420,23.929
9480,18.568
9540,26.316
9600,31.377
9660,25.120
9720,26.400
9780,25.041
9840,24.264
9900,20.996
9960,25.445
10020,31.913
10080,27.410
10140,38.824
10200,30.591
10260,23.826
10320,20.156
10380,19.984
10440,21.049
10500,13.553
10560,17.964
10620,15.527
10680,21.261
10740,20.289
10800,19.194
10860,25.448
10920,21.297
10980,15.101
11040,23.086
11100,18.499
11160,24.186
11220,23.534
11280,30.976
11340,22.657
11400,23.419
11460,25.660
11520,18.916
11580,21.509
11640,27.367
11700,27.781
11760,45.738
11820,39.382
11880,32.189
11940,34.599
12000,25.025
12060,32.542
12120,38.967
12180,65.254
12240,43.008
12300,76.245
12360,28.081
12420,50.182
12480,34.808
12540,37.812
12600,22.916
12660,24.915
12720,25.039
12780,48.160
12840,56.771
12900,48.457
12960,53.073
13020,45.938
13080,48.458
13140,55.668
13200,53.747
13260,65.812
13320,62.277
13380,65.599
13440,62.366
13500,62.309
13560,56.288
13620,42.662
13680,44.991
13740,26.432
13800,21.094
13860,179.296
13920,200.968
13980,114.351
14040,209.998
14100,285.085
14160,-9999.000
14220,189.684
14280,249.045
14340,150.726
14400,174.598
14460,102.569
14520,41.162
14580,38.824
14640,40.400
14700,40.182
14760,51.218
14820,46.242
14880,45.690
14940,40.581
15000,50.553
15060,80.839
15120,78.107
15180,94.003
15240,90.381
15300,116.187
15360,169.547
15420,90.501
15480,92.597
15540,53.832
15600,62.691
15660,127.230
15720,146.534
15780,138.899
15840,150.486
15900,153.224
15960,108.201
16020,84.564
16080,105.974
16140,109.863
16200,99.684
16260,115.107
16320,116.780
16380,117.170
16440,112.562
16500,107.678
16560,134.003
16620,121.042
16680,104.485
16740,121.908
16800,111.736
16860,111.200
16920,112.551
16980,79.266
17040,68.798
17100,73.026
17160,66.705
17220,71.504
17280,60.915
17340,96.155
17400,80.208
17460,62.354
17520,60.019
17580,60.896
17640,64.958
17700,81.861
17760,70.466
17820,65.919
17880,64.179
17940,54.917
18000,51.302
18060,53.803
18120,62.815
18180,69.233
18240,64.062
18300,84.270
18360,62.562
18420,51.502
18480,50.081
18540,35.988
18600,49.543
18660,48.248
18720,46.842
18780,51.865
18840,53.091
18900,38.041
18960,50.581
19020,43.061
19080,42.078
19140,43.424
19200,38.122
19260,36.254
19320,55.278
19380,62.802
19440,37.391
19500,36.493
19560,39.840
19620,31.689
19680,44.353
19740,34.888
19800,39.789
19860,27.421
19920,33.702
19980,32.611
20040,31.137
20100,26.935
20160,34.522
20220,24.365
20280,28.262
20340,29.813
20400,26.407
20460,25.342
20520,25.185
20580,28.290
20640,27.517
20700,27.462
20760,32.169
20820,29.306
20880,29.984
20940,27.319
21000,30.706
21060,29.866
21120,29.911
21180,27.678
21240,30.361
21300,25.308
21360,27.159
21420,28.151
21480,34.580
21540,43.677
21600,-9999.000
21660,-9999.000
21720,-9999.000
21780,-9999.000
21840,-9999.000
21900,-9999.000
21960,-9999.000
22020,-9999.000
22080,-9999.000
22140,-9999.000
22200,-9999.000
22260,-9999.000
22320,-9999.000
22380,-9999.000
22440,-9999.000
22500,37.408
22560,43.707
22620,34.449
22680,32.877
22740,37.172
22800,46.257
22860,42.187
22920,40.249
22980,41.918
23040,34.163
23100,37.753
23160,40.838
23220,39.459
23280,35.500
23340,43.149
23400,34.064
23460,40.036
23520,38.960
23580,36.658
23640,37.145
23700,40.476
23760,41.367
23820,33.305
23880,37.072
23940,40.348
24000,33.091
24060,35.347
24120,36.712
24180,34.676
24240,87.016
24300,38.282
24360,40.686
24420,34.497
24480,36.228
24540,33.983
24600,39.760
24660,38.889
24720,51.346
24780,43.518
24840,39.615
24900,42.346
24960,40.856
25020,44.043
25080,41.556
25140,42.739
25200,33.391
25260,31.203
25320,42.249
25380,23.999
25440,36.998
25500,37.717
25560,31.361
25620,39.721
25680,33.845
25740,37.961
25800,38.190
25860,41.401
25920,36.705
25980,34.069
26040,33.312
26100,44.847
26160,36.993
26220,37.509
26280,33.689
26340,38.275
26400,41.351
26460,32.548
26520,38.257
26580,35.097
26640,41.419
26700,38.468
26760,43.876
26820,37.180
26880,45.343
26940,50.045
27000,42.025
27060,57.605
27120,24.807
27180,49.479
27240,30.820
27300,38.916
27360,50.699
27420,52.186
27480,47.861
27540,47.670
27600,44.013
27660,27.718
27720,49.391
27780,46.951
27840,38.925
27900,34.369
27960,30.866
28020,28.750
28080,47.292
28140,36.661
28200,47.382
28260,37.156
28320,54.448
28380,50.923
28440,66.039
28500,76.400
28560,56.265
28620,85.343
28680,35.389
28740,62.368
28800,40.276
28860,55.907
28920,54.703
28980,47.595
29040,68.350
29100,69.159
29160,83.134
29220,77.287
29280,72.963
29340,76.798
29400,103.758
29460,102.612
29520,107.579
29580,96.259
29640,112.578
29700,106.583
29760,118.553
29820,84.645
29880,92.815
29940,104.709
30000,99.785
30060,100.076
30120,85.560
30180,109.285
30240,83.060
30300,90.766
30360,71.428
30420,69.395
30480,50.546
30540,53.406
30600,56.257
30660,57.085
30720,54.436
30780,33.779
30840,55.516
30900,53.946
30960,80.492
31020,79.811
31080,88.862
31140,91.662
31200,101.017
31260,89.706
31320,105.732
31380,82.513
31440,101.189
31500,103.157
31560,79.581
31620,111.256
31680,79.210
31740,127.390
31800,56.411
31860,99.483
31920,108.583
31980,104.598
32040,121.607
32100,127.069
32160,131.056
32220,136.708
32280,148.093
32340,129.661
32400,152.312
32460,146.891
32520,154.605
32580,139.960
32640,-9999.000
32700,123.522
32760,138.416
32820,135.544
32880,137.553
32940,129.957
33000,133.976
33060,146.031
33120,110.113
33180,122.391
33240,110.073
33300,125.531
33360,110.104
33420,115.530
33480,118.511
33540,130.876
33600,130.978
33660,127.228
33720,117.471
33780,124.748
33840,129.353
33900,115.356
33960,136.634
34020,125.549
34080,131.381
34140,127.637
34200,110.298
34260,115.962
34320,100.258
34380,127.836
34440,84.048
34500,117.919
34560,100.359
34620,141.955
34680,178.983
34740,171.388
34800,159.177
34860,157.310
34920,183.529
34980,150.382
35040,167.021
35100,151.742
35160,199.093
35220,172.671
35280,177.714
35340,156.042
35400,167.909
35460,164.038
35520,189.247
35580,192.774
35640,186.829
35700,197.587
35760,143.739
35820,197.451
35880,158.265
35940,178.792
36000,184.456
36060,189.550
36120,149.571
36180,147.480
36240,152.020
36300,128.650
36360,124.968
36420,131.310
36480,143.620
36540,146.896
36600,150.913
36660,149.281
36720,185.265
36780,198.916
36840,211.399
36900,191.176
36960,147.588
37020,149.865
37080,127.572
37140,147.048
37200,151.986
37260,140.017
37320,143.894
37380,128.708
37440,134.409
37500,114.458
37560,140.444
37620,126.894
37680,112.454
37740,119.235
37800,106.933
37860,131.321
37920,94.058
37980,127.508
38040,93.224
38100,117.063
38160,101.313
38220,107.979
38280,129.121
38340,126.967
38400,131.594
38460,134.703
38520,159.120
38580,113.704
38640,126.195
38700,147.979
38760,143.204
38820,139.807
38880,149.023
38940,147.984
39000,147.486
39060,179.737
39120,137.577
39180,179.281
39240,140.412
39300,165.205
39360,165.280
39420,145.481
39480,136.585
39540,155.762
39600,158.060
39660,148.105
39720,154.264
39780,135.400
39840,144.065
39900,129.341
39960,158.695
40020,128.338
40080,131.769
40140,149.669
40200,161.689
40260,151.201
40320,110.738
40380,119.782
40440,124.425
40500,140.900
40560,145.727
40620,136.213
40680,137.410
40740,129.413
40800,136.296
40860,131.785
40920,146.072
40980,117.046
41040,157.602
41100,138.209
41160,132.629
41220,147.880
41280,120.969
41340,155.940
41400,96.355
41460,122.421
41520,116.622
41580,115.072
41640,122.348
41700,123.664
41760,137.801
41820,128.731
41880,108.378
41940,129.471
42000,146.394
42060,126.368
42120,154.531
42180,152.321
42240,167.244
42300,180.128
42360,327.930
42420,288.648
42480,123.353
42540,150.122
42600,124.264
42660,135.331
42720,142.271
42780,241.615
42840,173.651
42900,184.363
42960,139.592
43020,118.082
43080,125.196
43140,118.966
43200,138.320
43260,112.440
43320,126.262
43380,130.419
43440,114.992
43500,123.850
43560,118.303
43620,140.637
43680,102.856
43740,105.239
43800,110.783
43860,117.409
43920,127.270
43980,105.481
44040,124.818
44100,104.266
44160,116.780
44220,105.636
44280,130.542
44340,129.702
44400,139.503
44460,152.995
44520,138.904
44580,165.856
44640,127.029
44700,163.920
44760,143.534
44820,162.323
44880,163.650
44940,144.520
45000,159.304
45060,178.140
45120,191.566
45180,153.784
45240,176.382
45300,203.495
45360,213.993
45420,170.055
45480,207.170
45540,234.286
45600,168.311
45660,188.107
45720,165.391
45780,227.892
45840,145.494
45900,163.551
45960,139.196
46020,145.661
46080,166.406
46140,155.077
46200,191.399
46260,160.150
46320,249.060
46380,195.979
46440,134.900
46500,147.927
46560,115.027
46620,143.137
46680,93.804
46740,100.041
46800,89.424
46860,128.857
46920,104.549
46980,105.211
47040,118.090
47100,97.304
47160,110.517
47220,78.540
47280,78.380
47340,69.350
47400,55.341
47460,54.805
47520,133.007
47580,194.118
47640,165.943
47700,87.081
47760,128.655
47820,142.043
47880,63.813
47940,139.753
48000,112.292
48060,145.671
48120,120.240
48180,122.232
48240,144.273
48300,103.005
48360,92.640
48420,85.314
48480,110.904
48540,91.428
48600,91.761
48660,103.685
48720,128.625
48780,125.594
48840,134.690
48900,154.384
48960,246.415
49020,279.725
49080,336.553
49140,246.805
49200,314.145
49260,276.072
49320,289.704
49380,254.934
49440,206.880
49500,203.080
49560,184.376
49620,194.471
49680,165.844
49740,216.990
49800,172.125
49860,214.108
49920,192.834
49980,156.087
50040,125.439
50100,140.230
50160,153.713
50220,131.691
50280,146.566
50340,140.079
50400,136.273
50460,160.046
50520,125.262
50580,162.389
50640,156.269
50700,174.798
50760,194.145
50820,193.396
50880,228.977
50940,225.719
51000,241.987
51060,238.802
51120,-9999.000
51180,223.770
51240,205.386
51300,207.564
51360,199.093
51420,146.841
51480,148.606
51540,158.697
51600,178.313
51660,183.867
51720,155.227
51780,151.978
51840,153.850
51900,150.716
51960,128.512
52020,148.873
52080,124.500
52140,142.473
52200,130.010
52260,151.724
52320,134.644
52380,135.579
52440,162.441
52500,184.774
52560,134.893
52620,153.226
52680,132.021
52740,149.660
52800,144.916
52860,148.017
52920,150.696
52980,144.970
53040,140.940
53100,125.194
53160,135.394
53220,131.364
53280,136.895
53340,129.094
53400,124.196
53460,118.186
53520,129.173
53580,130.418
53640,129.796
53700,88.218
53760,72.420
53820,83.509
53880,69.700
53940,82.902
54000,151.531
54060,89.914
54120,72.714
54180,85.715
54240,79.419
54300,67.414
54360,74.405
54420,80.260
54480,63.089
54540,60.142
54600,83.646
54660,95.406
54720,78.256
54780,80.502
54840,68.443
54900,81.743
54960,89.884
55020,77.871
55080,70.042
55140,74.061
55200,79.595
55260,76.971
55320,76.541
55380,87.234
55440,68.802
55500,68.835
55560,84.648
55620,84.907
55680,80.214
55740,75.387
55800,91.777
55860,90.931
55920,68.114
55980,79.316
56040,92.229
56100,87.467
56160,76.479
56220,86.803
56280,71.492
56340,70.519
56400,62.012
56460,68.871
56520,94.363
56580,82.755
56640,223.042
56700,113.064
56760,129.389
56820,119.531
56880,110.957
56940,122.641
57000,121.092
57060,148.241
57120,137.991
57180,149.962
57240,118.146
57300,195.496
57360,82.186
57420,53.595
57480,54.221
57540,64.880
57600,48.213
57660,37.172
57720,55.509
57780,108.434
57840,121.937
57900,125.627
57960,164.234
58020,85.643
58080,50.309
58140,39.005
58200,33.764
58260,60.597
58320,65.188
58380,38.696
58440,34.384
58500,21.277
58560,69.331
58620,83.152
58680,180.881
58740,74.427
58800,78.925
58860,78.816
58920,48.387
58980,61.381
59040,60.073
59100,42.675
59160,38.982
59220,34.002
59280,35.212
59340,55.996
59400,45.513
59460,55.979
59520,48.329
59580,90.304
59640,72.989
59700,27.473
59760,43.947
59820,63.879
59880,36.947
59940,42.855
60000,34.827
60060,35.527
60120,25.097
60180,31.749
60240,36.548
60300,35.704
60360,23.690
60420,-9999.000
60480,-9999.000
60540,-9999.000
60600,-9999.000
60660,-9999.000
60720,-9999.000
60780,-9999.000
60840,-9999.000
60900,-9999.000
60960,-9999.000
61020,-9999.000
61080,-9999.000
61140,-9999.000
61200,-9999.000
61260,-9999.000
61320,-9999.000
61380,-9999.000
61440,-9999.000
61500,-9999.000
61560,-9999.000
61620,-9999.000
61680,-9999.000
61740,-9999.000
61800,-9999.000
61860,-9999.000
61920,-9999.000
61980,-9999.000
62040,-9999.000
62100,-9999.000
62160,-9999.000
62220,-9999.000
62280,-9999.000
62340,-9999.000
62400,-9999.000
62460,-9999.000
62520,-9999.000
62580,-9999.000
62640,-9999.000
62700,-9999.000
62760,-9999.000
62820,-9999.000
62880,-9999.000
62940,-9999.000
63000,-9999.000
63060,-9999.000
63120,-9999.000
63180,-9999.000
63240,-9999.000
63300,-9999.000
63360,-9999.000
63420,-9999.000
63480,-9999.000
63540,-9999.000
63600,-9999.000
63660,-9999.000
63720,-9999.000
63780,-9999.000
63840,-9999.000
63900,-9999.000
63960,-9999.000
64020,-9999.000
64080,-9999.000
64140,-9999.000
64200,-9999.000
64260,-9999.000
64320,-9999.000
64380,-9999.000
64440,-9999.000
64500,-9999.000
64560,-9999.000
64620,-9999.000
64680,-9999.000
64740,-9999.000
64800,-9999.000
64860,-9999.000
64920,-9999.000
64980,-9999.000
65040,-9999.000
65100,-9999.000
65160,-9999.000
65220,-9999.000
65280,-9999.000
65340,-9999.000
65400,-9999.000
65460,-9999.000
65520,-9999.000
65580,-9999.000
65640,-9999.000
65700,-9999.000
65760,-9999.000
65820,-9999.000
65880,-9999.000
65940,-9999.000
66000,-9999.000
66060,-9999.000
66120,-9999.000
66180,-9999.000
66240,-9999.000
66300,-9999.000
66360,-9999.000
66420,-9999.000
66480,-9999.000
66540,-9999.000
66600,-9999.000
66660,-9999.000
66720,-9999.000
66780,-9999.000
66840,-9999.000
66900,-9999.000
66960,-9999.000
67020,-9999.000
67080,-9999.000
67140,-9999.000
67200,-9999.000
67260,-9999.000
67320,-9999.000
67380,-9999.000
67440,-9999.000
67500,-9999.000
67560,-9999.000
67620,-9999.000
67680,-9999.000
67740,-9999.000
67800,-9999.000
67860,-9999.000
67920,-9999.000
67980,-9999.000
68040,-9999.000
68100,-9999.000
68160,-9999.000
68220,-9999.000
68280,-9999.000
68340,-9999.000
68400,-9999.000
68460,-9999.000
68520,-9999.000
68580,-9999.000
68640,-9999.000
68700,-9999.000
68760,-9999.000
68820,-9999.000
68880,-9999.000
68940,-9999.000
69000,-9999.000
69060,-9999.000
69120,-9999.000
69180,-9999.000
69240,-9999.000
69300,-9999.000
69360,-9999.000
69420,-9999.000
69480,-9999.000
69540,-9999.000
69600,-9999.000
69660,-9999.000
69720,-9999.000
69780,-9999.000
69840,-9999.000
69900,-9999.000
69960,-9999.000
70020,-9999.000
70080,-9999.000
70140,-9999.000
70200,-9999.000
70260,-9999.000
70320,-9999.000
70380,-9999.000
70440,-9999.000
70500,-9999.000
70560,-9999.000
70620,-9999.000
70680,-9999.000
70740,-9999.000
70800,-9999.000
70860,-9999.000
70920,-9999.000
70980,-9999.000
71040,-9999.000
71100,-9999.000
71160,-9999.000
71220,-9999.000
71280,-9999.000
71340,-9999.000
71400,-9999.000
71460,-9999.000
71520,-9999.000
71580,-9999.000
71640,-9999.000
71700,-9999.000
71760,-9999.000
71820,-9999.000
71880,-9999.000
71940,-9999.000
72000,-9999.000
72060,-9999.000
72120,-9999.000
72180,-9999.000
72240,-9999.000
72300,-9999.000
72360,-9999.000
72420,-9999.000
72480,-9999.000
72540,-9999.000
72600,-9999.000
72660,-9999.000
72720,-9999.000
72780,-9999.000
72840,-9999.000
72900,-9999.000
72960,-9999.000
73020,-9999.000
73080,-9999.000
73140,-9999.000
73200,-9999.000
73260,-9999.000
73320,-9999.000
73380,-9999.000
73440,-9999.000
73500,-9999.000
73560,-9999.000
73620,-9999.000
73680,-9999.000
73740,-9999.000
73800,-9999.000
73860,-9999.000
73920,-9999.000
73980,-9999.000
74040,-9999.000
74100,-9999.000
74160,-9999.000
74220,-9999.000
74280,-9999.000
74340,-9999.000
74400,-9999.000
74460,-9999.000
74520,-9999.000
74580,-9999.000
74640,-9999.000
74700,-9999.000
74760,-9999.000
74820,-9999.000
74880,-9999.000
74940,-9999.000
75000,-9999.000
75060,-9999.000
75120,-9999.000
75180,-9999.000
75240,-9999.000
75300,-9999.000
75360,-9999.000
75420,-9999.000
75480,-9999.000
75540,-9999.000
75600,-9999.000
75660,-9999.000
75720,-9999.000
75780,-9999.000
75840,-9999.000
75900,-9999.000
75960,-9999.000
76020,-9999.000
76080,-9999.000
76140,-9999.000
76200,-9999.000
76260,-9999.000
76320,-9999.000
76380,-9999.000
76440,-9999.000
76500,-9999.000
76560,-9999.000
76620,-9999.000
76680,-9999.000
76740,-9999.000
76800,-9999.000
76860,-9999.000
76920,-9999.000
76980,-9999.000
77040,-9999.000
77100,-9999.000
77160,-9999.000
77220,-9999.000
77280,-9999.000
77340,-9999.000
77400,-9999.000
77460,-9999.000
77520,-9999.000
77580,-9999.000
77640,-9999.000
77700,-9999.000
77760,-9999.000
77820,-9999.000
77880,-9999.000
77940,-9999.000
78000,-9999.000
78060,-9999.000
78120,-9999.000
78180,-9999.000
78240,-9999.000
78300,-9999.000
78360,-9999.000
78420,0.889
78480,-2.154
78540,-0.647
78600,-2.576
78660,-0.438
78720,-1.089
78780,1.127
78840,2.309
78900,-1.146
78960,0.355
79020,1.345
79080,0.385
79140,-2.284
79200,0.228
79260,-2.852
79320,4.936
79380,1.533
79440,-2.767
79500,4.586
79560,-1.908
79620,-0.602
79680,8.028
79740,13.563
79800,8.307
79860,11.410
79920,8.017
79980,4.009
80040,-0.810
80100,0.028
80160,-1.227
80220,1.915
80280,-0.572
80340,1.038
80400,-9999.000
80460,4.674
80520,4.130
80580,0.770
80640,5.180
80700,6.106
80760,0.570
80820,0.398
80880,1.597
80940,2.312
81000,-0.236
81060,1.153
81120,2.444
81180,2.747
81240,4.406
81300,0.007
81360,-9999.000
81420,-9999.000
81480,-9999.000
81540,-9999.000
81600,-9999.000
81660,-9999.000
81720,-9999.000
81780,-9999.000
81840,-9999.000
81900,-9999.000
81960,-9999.000
82020,-9999.000
82080,-9999.000
82140,-9999.000
82200,-9999.000
82260,-9999.000
82320,-9999.000
82380,-9999.000
82440,-9999.000
82500,-9999.000
82560,-9999.000
82620,-9999.000
82680,-9999.000
82740,-0.223
82800,-1.025
82860,-0.442
82920,-2.770
82980,-2.452
83040,-1.964
83100,-1.972
83160,-3.363
83220,-1.235
83280,-2.552
83340,-3.215
83400,-4.411
83460,-4.230
83520,-2.783
83580,-1.850
83640,-1.233
83700,-9999.000
83760,-9999.000
83820,-9999.000
83880,-9999.000
83940,-9999.000
84000,-9999.000
84060,-9999.000
84120,-9999.000
84180,-9999.000
84240,-9999.000
84300,-9999.000
84360,-9999.000
84420,-9999.000
84480,-9999.000
84540,-9999.000
84600,-9999.000
84660,-9999.000
84720,-9999.000
84780,-9999.000
84840,-9999.000
84900,-9999.000
84960,-9999.000
85020,-9999.000
85080,-9999.000
85140,-9999.000
85200,-9999.000
85260,-9999.000
85320,-9999.000
85380,-9999.000
85440,-9999.000
85500,-9999.000
85560,-9999.000
85620,-9999.000
85680,-9999.000
85740,-9999.000
85800,-9999.000
85860,-9999.000
85920,-9999.000
85980,-9999.000
86040,-9999.000
86100,-9999.000
86160,-9999.000
86220,-9999.000
86280,-3.650
86340,-3.245
