33, 1001
Michael A Robinson, Chris Jernigan, Subi Thakali
NOAA ESRL Chemical Sciences Laboratory and CIRES, U. of Colorado
NOAA Iodide CIMS Instrument
USOS
1, 1
2024, 08, 06, 2024, 08, 06
1
starttime_UTC, seconds_past_midnight, seconds_of_day_since_00:00:00_UTC
1
1
-9999
HNO2_NOAACIMS, pptv, Gas_HNO2_InSitu_S_AVMR, 
0
18
PI_CONTACT_INFO: 325 Broadway, R/CSD 7, Boulder, Colorado 80305; michael.a.robinson@noaa.gov; chris.jernigan@noaa.gov;
PLATFORM: NOAA CSL Mobile Lab
LOCATION: SLC, Utah
ASSOCIATED_DATA: 1Hz data also available on request.
INSTRUMENT_INFO: NOAA I- ToF CIMS
DATA_INFO: All data in parts per trillion by volume (pptv). 1 Hz data is available upon request.
UNCERTAINTY: TBD
ULOD_FLAG: -7777
ULOD_VALUE: N/A
LLOD_FLAG: -8888
LLOD_VALUE: N/A
DM_CONTACT_INFO: Nathan Howard; nathan.h.howard@noaa.gov
PROJECT_INFO: USOS, summer 2024. https://csl.noaa.gov/groups/csl7/measurements/2024usos/
STIPULATIONS_ON_USE: Users are strongly encouraged to contact the PI for proper data usage.
OTHER_COMMENTS: 
REVISION: RA
RA: Preliminary Data; For in-field use only
starttime_UTC, HNO2_NOAACIMS
     0, -9999.000
    60, -9999.000
   120, -9999.000
   180, -9999.000
   240, -9999.000
   300, -9999.000
   360, -9999.000
   420, -9999.000
   480, -9999.000
   540, -9999.000
   600, -9999.000
   660, -9999.000
   720, -9999.000
   780, -9999.000
   840, -9999.000
   900, -9999.000
   960, 74.152
  1020, 103.824
  1080, 102.581
  1140, 34.442
  1200, 30.474
  1260, 31.397
  1320, 24.889
  1380, 23.798
  1440, 18.735
  1500, 20.683
  1560, 17.807
  1620, 14.878
  1680, 15.035
  1740,  9.567
  1800, 13.478
  1860, 22.477
  1920,  9.438
  1980, 14.941
  2040, 19.585
  2100, -9999.000
  2160,  7.609
  2220, 20.997
  2280, 35.280
  2340, 26.722
  2400, 24.514
  2460, 33.905
  2520, 29.596
  2580, 32.554
  2640, 31.085
  2700, 36.699
  2760, 32.202
  2820, 33.811
  2880, 32.398
  2940, 27.215
  3000, 21.054
  3060, 27.941
  3120, 31.648
  3180, 26.116
  3240, 24.054
  3300, 27.383
  3360, 31.023
  3420, 18.941
  3480, 21.704
  3540, 22.438
  3600, 19.106
  3660, 11.086
  3720,  7.285
  3780,  5.728
  3840,  3.793
  3900, 12.154
  3960, -9999.000
  4020, 13.502
  4080,  5.240
  4140,  7.832
  4200, 13.720
  4260,  7.043
  4320, 10.184
  4380,  7.728
  4440,  7.169
  4500,  8.862
  4560, 17.145
  4620, 24.603
  4680, 21.601
  4740, 23.991
  4800, 18.428
  4860, 16.653
  4920, 16.866
  4980, 15.752
  5040, 13.744
  5100, 10.996
  5160, 12.715
  5220, 17.335
  5280, 21.203
  5340, 25.588
  5400, 16.196
  5460, 16.183
  5520, 17.440
  5580, 20.976
  5640, 14.846
  5700, 19.745
  5760, 11.361
  5820, -9999.000
  5880, 12.664
  5940, 16.135
  6000, 16.146
  6060, 12.589
  6120, 12.109
  6180, 11.926
  6240, 10.210
  6300, 17.273
  6360, 29.037
  6420, 42.325
  6480, 32.437
  6540, 20.678
  6600, 19.510
  6660, 20.620
  6720, 17.518
  6780, 18.945
  6840, 18.430
  6900, 43.358
  6960, 35.952
  7020, 23.859
  7080, 29.449
  7140,  8.485
  7200, 13.374
  7260, 11.914
  7320, 18.582
  7380, 23.763
  7440, 21.127
  7500, 20.011
  7560, 15.016
  7620, 18.671
  7680, 24.520
  7740, 17.343
  7800, 22.268
  7860, 18.457
  7920, 23.512
  7980, 16.114
  8040, 24.991
  8100, 23.761
  8160, 23.885
  8220, 19.378
  8280, 21.442
  8340, 17.651
  8400, 20.588
  8460, 13.159
  8520, 17.765
  8580, 14.987
  8640, 16.876
  8700, 23.450
  8760, 24.777
  8820, 21.611
  8880, 27.272
  8940, 24.629
  9000, 22.296
  9060, 19.671
  9120, 24.449
  9180, 25.057
  9240, 21.598
  9300, 18.662
  9360, 26.286
  9420, 25.668
  9480, 30.544
  9540, 21.423
  9600, 23.069
  9660, 23.842
  9720, 23.325
  9780, 21.880
  9840, 22.626
  9900, 21.203
  9960, 18.470
 10020, 20.732
 10080, 27.648
 10140, 27.289
 10200, 32.631
 10260, 28.838
 10320, 23.533
 10380, 20.940
 10440, 21.544
 10500, 19.067
 10560, 18.929
 10620, 19.272
 10680, 22.950
 10740, 23.513
 10800, 23.321
 10860, 19.303
 10920, 22.206
 10980, 25.855
 11040, 24.613
 11100, 20.019
 11160, 28.054
 11220, 21.393
 11280, 32.899
 11340, 29.249
 11400, 38.724
 11460, 30.821
 11520, 30.483
 11580, 28.564
 11640, 20.179
 11700, 23.633
 11760, 24.558
 11820, 29.398
 11880, 28.721
 11940, 34.555
 12000, 27.549
 12060, 27.861
 12120, 34.298
 12180, 28.125
 12240, 30.385
 12300, 29.933
 12360, 24.961
 12420, 30.046
 12480, 30.309
 12540, 31.411
 12600, 28.389
 12660, 31.723
 12720, 28.016
 12780, 30.416
 12840, 25.485
 12900, 19.387
 12960, 28.404
 13020, 28.373
 13080, 36.815
 13140, 41.516
 13200, -9999.000
 13260, 64.288
 13320, 35.510
 13380, 49.380
 13440, 39.816
 13500, 38.186
 13560, 38.955
 13620, 35.511
 13680, 42.964
 13740, 26.000
 13800, 30.896
 13860, 30.070
 13920, 40.498
 13980, 37.549
 14040, 38.256
 14100, 38.503
 14160, 47.998
 14220, 54.676
 14280, 61.676
 14340, 52.508
 14400, 49.633
 14460, 53.504
 14520, 49.790
 14580, 27.260
 14640, 31.786
 14700, 31.710
 14760, 35.479
 14820, 37.054
 14880, 36.085
 14940, 31.344
 15000, 35.667
 15060, -9999.000
 15120, 44.613
 15180, 49.333
 15240, 42.352
 15300, 46.545
 15360, 53.101
 15420, 38.563
 15480, 30.817
 15540, 41.227
 15600, 31.108
 15660, 30.761
 15720, 33.953
 15780, 28.112
 15840, 35.565
 15900, 23.712
 15960, 30.900
 16020, 18.866
 16080, 35.508
 16140, 30.704
 16200, 35.309
 16260, 39.601
 16320, 26.258
 16380, 26.927
 16440, 26.107
 16500, 26.092
 16560, 26.586
 16620, 25.479
 16680, 24.656
 16740, 23.792
 16800, 34.076
 16860, 30.059
 16920, -9999.000
 16980, 33.617
 17040, 32.028
 17100, 34.366
 17160, 30.787
 17220, 29.686
 17280, 30.866
 17340, 35.947
 17400, 44.445
 17460, 38.599
 17520, 30.466
 17580, 28.637
 17640, 32.285
 17700, 36.580
 17760, 37.726
 17820, 38.625
 17880, 33.702
 17940, 34.572
 18000, 36.639
 18060, 34.181
 18120, 31.252
 18180, 36.436
 18240, 38.366
 18300, 42.440
 18360, 37.985
 18420, 41.556
 18480, 40.590
 18540, 38.328
 18600, 46.344
 18660, 36.529
 18720, 32.228
 18780, 41.118
 18840, 28.389
 18900, 35.815
 18960, 39.311
 19020, 33.887
 19080, 33.216
 19140, 29.130
 19200, 37.129
 19260, 23.636
 19320, 33.098
 19380, 37.086
 19440, 19.351
 19500, 22.664
 19560, 31.155
 19620, 31.061
 19680, 34.112
 19740, 29.346
 19800, 41.234
 19860, 35.734
 19920, 39.821
 19980, 32.237
 20040, 36.622
 20100, 38.770
 20160, 35.312
 20220, 40.698
 20280, 27.591
 20340, 31.804
 20400, 30.226
 20460, 38.358
 20520, 43.956
 20580, -9999.000
 20640, 20.111
 20700, 37.466
 20760, 30.880
 20820, 33.379
 20880, 34.282
 20940, 37.959
 21000, 39.062
 21060, 40.713
 21120, 33.475
 21180, 36.695
 21240, 30.219
 21300, 27.638
 21360, 37.357
 21420, 33.404
 21480, 28.661
 21540, 30.406
 21600, 42.144
 21660, 35.007
 21720, 34.189
 21780, 40.548
 21840, 30.144
 21900, 33.200
 21960, 37.088
 22020, 33.494
 22080, 28.252
 22140, 29.378
 22200, 34.798
 22260, 28.492
 22320, 34.543
 22380, 29.236
 22440, -9999.000
 22500, 26.580
 22560, 34.715
 22620, 41.437
 22680, 31.235
 22740, 35.221
 22800, 32.305
 22860, 33.553
 22920, 30.648
 22980, 30.042
 23040, 30.394
 23100, 22.875
 23160, 32.470
 23220, 32.138
 23280, 32.211
 23340, 29.880
 23400, 32.060
 23460, 32.781
 23520, 26.694
 23580, 34.143
 23640, 30.397
 23700, 32.665
 23760, 23.236
 23820, 28.035
 23880, 30.469
 23940, 29.680
 24000, 29.317
 24060, 30.625
 24120, 33.789
 24180, 26.528
 24240, 26.090
 24300, -9999.000
 24360, 26.908
 24420, 27.979
 24480, 34.370
 24540, 32.366
 24600, 39.983
 24660, 28.165
 24720, 32.978
 24780, 34.729
 24840, 37.536
 24900, 36.865
 24960, 27.350
 25020, 40.098
 25080, 23.448
 25140, 33.808
 25200, 34.747
 25260, 34.114
 25320, 34.275
 25380, 33.036
 25440, 33.351
 25500, 26.618
 25560, 41.227
 25620, 36.474
 25680, 35.738
 25740, 38.644
 25800, 31.554
 25860, 30.262
 25920, 40.213
 25980, 40.482
 26040, 36.314
 26100, 30.567
 26160, 47.032
 26220, 44.027
 26280, 43.029
 26340, 32.241
 26400, 43.075
 26460, 36.856
 26520, 34.074
 26580, 41.164
 26640, 27.486
 26700, 34.569
 26760, 31.877
 26820, 32.127
 26880, 33.517
 26940, 27.704
 27000, 34.102
 27060, 30.853
 27120, 29.492
 27180, 36.823
 27240, 33.023
 27300, 31.936
 27360, 29.649
 27420, 35.166
 27480, 33.556
 27540, 26.058
 27600, 32.992
 27660, 38.238
 27720, 43.147
 27780, 33.142
 27840, 30.371
 27900, 37.765
 27960, 22.016
 28020, 47.391
 28080, 32.452
 28140, 38.569
 28200, 61.182
 28260, 75.820
 28320, 99.112
 28380, 103.224
 28440, 101.211
 28500, 97.003
 28560, 101.600
 28620, 89.563
 28680, 98.469
 28740, 115.469
 28800, 106.367
 28860, 119.455
 28920, 97.221
 28980, 106.543
 29040, 104.608
 29100, 114.068
 29160, 108.519
 29220, 63.252
 29280, 78.398
 29340, 76.605
 29400, 54.928
 29460, 55.320
 29520, 49.105
 29580, 38.565
 29640, 45.857
 29700, 36.306
 29760, 42.962
 29820, 29.280
 29880, 41.694
 29940, 52.778
 30000, 45.994
 30060, 30.997
 30120, 42.499
 30180, 43.555
 30240, 43.180
 30300, 61.586
 30360, 53.693
 30420, 59.255
 30480, 79.821
 30540, 82.411
 30600, 95.900
 30660, 98.779
 30720, 119.518
 30780, 111.886
 30840, 115.989
 30900, 134.330
 30960, 126.006
 31020, 132.795
 31080, 132.004
 31140, 133.937
 31200, 132.370
 31260, 127.721
 31320, 131.962
 31380, 136.778
 31440, 101.756
 31500, 119.175
 31560, 127.996
 31620, 112.012
 31680, -9999.000
 31740, 133.725
 31800, 129.518
 31860, 124.786
 31920, 118.674
 31980, 136.580
 32040, 125.870
 32100, 120.105
 32160, 136.074
 32220, 126.118
 32280, 131.226
 32340, 129.831
 32400, 145.978
 32460, 160.833
 32520, 139.351
 32580, 156.866
 32640, 147.655
 32700, 151.328
 32760, 169.266
 32820, 155.412
 32880, 155.322
 32940, 150.258
 33000, 160.246
 33060, 171.951
 33120, 150.827
 33180, 159.335
 33240, 154.396
 33300, 160.014
 33360, 189.923
 33420, 193.058
 33480, 174.451
 33540, -9999.000
 33600, 197.225
 33660, 200.432
 33720, 189.784
 33780, 175.118
 33840, 191.973
 33900, 165.886
 33960, 193.087
 34020, 185.231
 34080, 192.982
 34140, 218.155
 34200, 173.033
 34260, 190.211
 34320, 184.221
 34380, 194.708
 34440, 196.475
 34500, 177.081
 34560, 195.322
 34620, 179.260
 34680, 205.675
 34740, 185.954
 34800, 196.765
 34860, 195.891
 34920, 181.243
 34980, 146.812
 35040, 158.862
 35100, 113.012
 35160, 117.789
 35220, 113.870
 35280, 93.134
 35340, 56.752
 35400, -9999.000
 35460, 125.779
 35520, 114.491
 35580, 123.054
 35640, 144.004
 35700, 173.052
 35760, 166.541
 35820, 144.521
 35880, 138.817
 35940, 145.372
 36000, 183.853
 36060, 199.745
 36120, 210.343
 36180, 165.530
 36240, 192.625
 36300, 176.067
 36360, 167.583
 36420, 160.070
 36480, 170.881
 36540, 152.154
 36600, 141.177
 36660, 142.691
 36720, 142.193
 36780, 134.771
 36840, 151.086
 36900, 122.509
 36960, 116.376
 37020, 129.872
 37080, 107.771
 37140, 118.162
 37200, 107.793
 37260, 115.518
 37320, 121.450
 37380, 133.656
 37440, 159.904
 37500, 137.935
 37560, 156.739
 37620, 147.564
 37680, 196.139
 37740, 144.390
 37800, 145.544
 37860, 145.693
 37920, 134.478
 37980, 127.317
 38040, 159.411
 38100, 171.029
 38160, 193.183
 38220, 160.232
 38280, 176.364
 38340, 168.494
 38400, 186.504
 38460, 175.080
 38520, 195.045
 38580, 220.239
 38640, 124.316
 38700, 172.116
 38760, 186.859
 38820, 163.061
 38880, 187.356
 38940, 176.667
 39000, 166.348
 39060, -9999.000
 39120, 156.985
 39180, 163.527
 39240, 201.342
 39300, 146.848
 39360, 139.587
 39420, 215.035
 39480, 179.787
 39540, 147.087
 39600, 170.176
 39660, 186.387
 39720, 196.789
 39780, 175.836
 39840, 132.184
 39900, 180.996
 39960, 151.984
 40020, 155.687
 40080, 198.902
 40140, 151.935
 40200, 163.691
 40260, 139.017
 40320, 131.602
 40380, 119.693
 40440, 148.661
 40500, 126.687
 40560, 158.349
 40620, 161.861
 40680, 159.121
 40740, 167.575
 40800, 108.467
 40860, 117.292
 40920, -9999.000
 40980, 167.893
 41040, 104.635
 41100, 132.109
 41160, 153.315
 41220, 129.815
 41280, 129.393
 41340, 113.770
 41400, 93.855
 41460, 129.537
 41520, 164.161
 41580, 107.139
 41640, 116.414
 41700, 129.957
 41760, 121.125
 41820, 89.993
 41880, 109.039
 41940, 105.045
 42000, 114.220
 42060, 105.009
 42120, 102.903
 42180, 100.319
 42240, 100.418
 42300, 97.774
 42360, 109.529
 42420, 100.170
 42480, 98.856
 42540, 112.379
 42600, 81.720
 42660, 89.869
 42720, 100.635
 42780, -9999.000
 42840, 92.409
 42900, 91.168
 42960, 86.433
 43020, 76.171
 43080, 83.958
 43140, 71.994
 43200, 111.908
 43260, 84.005
 43320, 96.658
 43380, 94.542
 43440, 87.918
 43500, 83.389
 43560, 101.074
 43620, 90.329
 43680, 86.499
 43740, 93.872
 43800, 100.946
 43860, 94.322
 43920, 79.374
 43980, 87.118
 44040, 94.818
 44100, 83.073
 44160, 85.272
 44220, 88.191
 44280, 95.502
 44340, 95.558
 44400, 71.381
 44460, 69.963
 44520, 68.871
 44580, 77.474
 44640, 95.094
 44700, 73.971
 44760, 67.573
 44820, 97.636
 44880, 74.836
 44940, 82.087
 45000, 73.669
 45060, 91.989
 45120, 79.137
 45180, 79.146
 45240, 77.187
 45300, 89.446
 45360, 55.706
 45420, 70.949
 45480, 75.027
 45540, 75.263
 45600, 80.553
 45660, 75.218
 45720, 71.000
 45780, 87.709
 45840, 72.174
 45900, 68.217
 45960, 83.575
 46020, 77.420
 46080, 71.041
 46140, 70.344
 46200, 73.021
 46260, 72.961
 46320, 69.640
 46380, 64.291
 46440, 49.606
 46500, 46.162
 46560, 65.446
 46620, 80.310
 46680, 81.714
 46740, 60.473
 46800, 89.355
 46860, 95.850
 46920, 97.260
 46980, 89.853
 47040, 86.130
 47100, 79.145
 47160, 77.315
 47220, 79.812
 47280, 78.331
 47340, 71.890
 47400, 73.547
 47460, 82.485
 47520, 74.988
 47580, 68.776
 47640, 55.842
 47700, 66.851
 47760, 75.554
 47820, 82.909
 47880, 131.014
 47940, 73.223
 48000, 78.874
 48060, 61.336
 48120, 64.664
 48180, 62.949
 48240, 65.208
 48300, 44.746
 48360, 50.274
 48420, 56.190
 48480, 56.202
 48540, 57.147
 48600, 66.100
 48660, 60.464
 48720, 60.563
 48780, 63.813
 48840, 62.794
 48900, 65.383
 48960, 68.778
 49020, 50.949
 49080, 50.370
 49140, 58.922
 49200, 112.968
 49260, 68.090
 49320, 66.244
 49380, 52.186
 49440, 57.449
 49500, 70.232
 49560, 56.642
 49620, 63.174
 49680, 69.242
 49740, 60.593
 49800, 62.636
 49860, 59.659
 49920, 56.745
 49980, 133.614
 50040, 142.065
 50100, 64.727
 50160, -9999.000
 50220, 98.467
 50280, 102.436
 50340, 127.810
 50400, 75.636
 50460, 52.524
 50520, 66.332
 50580, 66.174
 50640, 56.741
 50700, 63.252
 50760, 83.450
 50820, 48.020
 50880, 153.478
 50940, 70.616
 51000, 61.523
 51060, 135.259
 51120, 173.481
 51180, 48.147
 51240, 149.193
 51300, 41.828
 51360, 92.671
 51420, 104.599
 51480, 86.710
 51540, 83.769
 51600, 49.923
 51660, 67.272
 51720, 58.135
 51780, 68.244
 51840, 70.450
 51900, 67.682
 51960, 73.329
 52020, -9999.000
 52080, 70.383
 52140, 62.782
 52200, 49.970
 52260, 58.565
 52320, 68.703
 52380, 73.741
 52440, 179.283
 52500, 60.604
 52560, 50.924
 52620, 55.177
 52680, 139.687
 52740, 102.365
 52800, 92.989
 52860, 87.064
 52920, 96.955
 52980, 84.434
 53040, 89.397
 53100, 61.429
 53160, 69.507
 53220, 82.539
 53280, 70.826
 53340, 70.971
 53400, 74.727
 53460, 73.380
 53520, 75.995
 53580, 167.982
 53640, 242.814
 53700, 239.079
 53760, 188.494
 53820, 64.069
 53880, -9999.000
 53940, 192.622
 54000, 232.033
 54060, 277.575
 54120, 76.411
 54180, 78.006
 54240, 78.107
 54300, 131.606
 54360, 61.800
 54420, 109.820
 54480, 88.382
 54540, 60.636
 54600, 141.768
 54660, 170.971
 54720, 117.129
 54780, 174.680
 54840, 162.977
 54900, 185.461
 54960, 143.837
 55020, 177.651
 55080, 163.079
 55140, 95.611
 55200, 72.775
 55260, 63.583
 55320, 69.231
 55380, 73.037
 55440, 78.154
 55500, 89.966
 55560, 58.172
 55620, 52.221
 55680, 46.485
 55740, 69.606
 55800, 78.885
 55860, 89.839
 55920, 131.700
 55980, 139.438
 56040, 186.340
 56100, 118.644
 56160, 212.877
 56220, 217.676
 56280, 138.791
 56340, 213.744
 56400, 124.943
 56460, 87.532
 56520, 83.530
 56580, 103.596
 56640, 172.244
 56700, 128.340
 56760, 104.011
 56820, 75.297
 56880, 142.653
 56940, 166.661
 57000, 107.622
 57060, 143.992
 57120, 168.045
 57180, 133.411
 57240, 81.274
 57300, 77.018
 57360, -9999.000
 57420, 111.515
 57480, 105.487
 57540, 117.170
 57600, 86.026
 57660, 86.869
 57720, 124.300
 57780, 113.475
 57840, 143.226
 57900, 139.017
 57960, 129.815
 58020, 90.063
 58080, 102.528
 58140, 111.595
 58200, 91.144
 58260, 97.284
 58320, 87.089
 58380, 84.128
 58440, 102.984
 58500, 95.820
 58560, 96.102
 58620, 95.197
 58680, 100.341
 58740, 111.803
 58800, -9999.000
 58860, -9999.000
 58920, -9999.000
 58980, -9999.000
 59040, -9999.000
 59100, -9999.000
 59160, -9999.000
 59220, -9999.000
 59280, -9999.000
 59340, -9999.000
 59400, -9999.000
 59460, -9999.000
 59520, -9999.000
 59580, -9999.000
 59640, -9999.000
 59700, -9999.000
 59760, -9999.000
 59820, -9999.000
 59880, -9999.000
 59940, 140.950
 60000, 118.626
 60060, 184.134
 60120, 118.566
 60180, 110.701
 60240, 131.174
 60300, 208.897
 60360, 149.702
 60420, 106.240
 60480, 156.042
 60540, 107.032
 60600, 77.844
 60660, 83.072
 60720, 93.702
 60780, 84.036
 60840, 122.880
 60900, 98.842
 60960, 94.260
 61020, 106.722
 61080, 88.765
 61140, 91.355
 61200, 80.015
 61260, 98.781
 61320, 92.257
 61380, 98.472
 61440, 98.147
 61500, 105.363
 61560, 84.076
 61620, 90.513
 61680, 91.400
 61740, 99.203
 61800, 96.719
 61860, 106.013
 61920, 113.237
 61980, 111.740
 62040, 79.669
 62100, 113.092
 62160, 103.297
 62220, 99.410
 62280, 91.835
 62340, 81.533
 62400, 92.515
 62460, 106.626
 62520, 100.397
 62580, 100.226
 62640, 88.227
 62700, 95.089
 62760, 103.592
 62820, 133.899
 62880, 94.878
 62940, 79.836
 63000, 103.723
 63060, 95.322
 63120, 127.388
 63180, 138.353
 63240, 99.902
 63300, 106.373
 63360, 83.251
 63420, 100.996
 63480, 103.894
 63540, 105.236
 63600, 102.206
 63660, 97.627
 63720, 96.037
 63780, 72.156
 63840, 99.623
 63900, 111.979
 63960, 105.965
 64020, 100.308
 64080, 99.150
 64140, 91.912
 64200, 94.383
 64260, 80.986
 64320, 89.754
 64380, 87.735
 64440, 88.456
 64500, 95.626
 64560, 79.661
 64620, 79.255
 64680, 91.337
 64740, 96.016
 64800, 83.626
 64860, 85.103
 64920, 78.070
 64980, 75.949
 65040, 62.565
 65100, 68.476
 65160, 71.305
 65220, 71.255
 65280, 73.283
 65340, 58.207
 65400, 42.208
 65460, -9999.000
 65520, 67.582
 65580, 64.246
 65640, 50.252
 65700, 45.746
 65760, 51.449
 65820, 51.199
 65880, 55.312
 65940, 66.724
 66000, 53.662
 66060, 46.421
 66120, 45.461
 66180, 44.846
 66240, 52.236
 66300, 36.747
 66360, 49.342
 66420, 51.033
 66480, 48.880
 66540, 52.866
 66600, 55.932
 66660, 66.185
 66720, 68.178
 66780, 67.762
 66840, 56.271
 66900, 54.249
 66960, 41.231
 67020, 58.884
 67080, 48.573
 67140, 42.649
 67200, 57.596
 67260, 69.408
 67320, -9999.000
 67380, 46.903
 67440, 41.567
 67500, 49.047
 67560, 53.389
 67620, 61.581
 67680, 55.218
 67740, 64.666
 67800, 61.041
 67860, 45.646
 67920, 45.370
 67980, 54.649
 68040, 46.027
 68100, 58.410
 68160, 47.384
 68220, 59.036
 68280, 61.104
 68340, 38.925
 68400, 58.976
 68460, 64.091
 68520, 61.345
 68580, 50.071
 68640, 53.664
 68700, 47.988
 68760, 40.435
 68820, 66.434
 68880, 55.860
 68940, 55.499
 69000, 67.736
 69060, 59.607
 69120, 70.836
 69180, -9999.000
 69240, 57.374
 69300, 58.237
 69360, 54.994
 69420, 44.687
 69480, 51.009
 69540, 50.055
 69600, 55.506
 69660, 58.657
 69720, 59.484
 69780, 46.953
 69840, 37.206
 69900, 55.658
 69960, 48.556
 70020, 42.680
 70080, 34.902
 70140, 35.775
 70200, 37.497
 70260, 50.712
 70320, 53.362
 70380, 42.142
 70440, 41.200
 70500, 37.031
 70560, 44.645
 70620, 38.330
 70680, 38.354
 70740, 44.548
 70800, 40.440
 70860, 44.104
 70920, 38.645
 70980, 28.575
 71040, 65.291
 71100, 50.136
 71160, 43.953
 71220, 46.653
 71280, 39.158
 71340, 39.386
 71400, 32.019
 71460, 33.002
 71520, 22.753
 71580, 33.960
 71640, 38.650
 71700, 35.688
 71760, 42.515
 71820, 39.738
 71880, 57.096
 71940, 42.276
 72000, 44.165
 72060, 36.977
 72120, 48.561
 72180, 41.648
 72240, 38.705
 72300, 36.887
 72360, 51.205
 72420, 33.664
 72480, 43.384
 72540, 39.027
 72600, 43.393
 72660, 39.250
 72720, 41.622
 72780, 50.344
 72840, -9999.000
 72900, 73.583
 72960, 45.599
 73020, 46.331
 73080, 50.207
 73140, 45.593
 73200, 41.484
 73260, 49.608
 73320, 32.273
 73380, 39.070
 73440, 31.249
 73500, 38.096
 73560, 37.578
 73620, 39.004
 73680, 50.054
 73740, 50.436
 73800, 46.989
 73860, 47.097
 73920, 45.973
 73980, 97.083
 74040, 69.237
 74100, 33.549
 74160, 41.061
 74220, 40.397
 74280, 41.395
 74340, 45.945
 74400, 40.416
 74460, 35.336
 74520, 31.264
 74580, 28.043
 74640, 34.452
 74700, -9999.000
 74760, 41.245
 74820, 41.023
 74880, 33.633
 74940, 39.344
 75000, 35.912
 75060, 36.245
 75120, 28.446
 75180, 43.424
 75240, 28.477
 75300, 30.752
 75360, 36.764
 75420, 32.726
 75480, 22.719
 75540, 32.463
 75600, 28.215
 75660, 27.305
 75720, 32.699
 75780, 41.730
 75840, 28.831
 75900, 35.380
 75960, 35.285
 76020, 32.836
 76080, 30.706
 76140, 28.569
 76200, 33.085
 76260, 39.469
 76320, 27.798
 76380, 29.899
 76440, 31.157
 76500, 30.382
 76560, -9999.000
 76620, 25.154
 76680, 26.890
 76740, 29.599
 76800, 20.334
 76860, 25.404
 76920, 36.440
 76980, 27.067
 77040, 30.062
 77100, 37.291
 77160, 28.587
 77220, 30.032
 77280, 25.947
 77340, 32.395
 77400, 28.204
 77460, 26.644
 77520, 20.557
 77580, 22.769
 77640, 20.624
 77700, 31.244
 77760, 26.328
 77820, 27.583
 77880, 23.716
 77940, 29.845
 78000, 29.612
 78060, 32.284
 78120, 32.039
 78180, 23.395
 78240, 20.427
 78300, 29.746
 78360, 21.806
 78420, 25.457
 78480, 21.787
 78540, 33.119
 78600, 27.432
 78660, 29.127
 78720, 25.133
 78780, 21.663
 78840, 21.716
 78900, 21.229
 78960, 27.403
 79020, 32.393
 79080, 21.013
 79140, 25.478
 79200, 26.173
 79260, 26.999
 79320, 25.695
 79380, 29.144
 79440, 20.741
 79500, 24.718
 79560, 26.082
 79620, 21.244
 79680, 21.485
 79740, 22.926
 79800, 18.427
 79860, 21.852
 79920, 22.348
 79980, 22.383
 80040, 20.270
 80100, 25.571
 80160, 22.091
 80220, 23.615
 80280, 15.451
 80340, 22.307
 80400, 27.597
 80460, 26.627
 80520, 21.875
 80580, 17.496
 80640, 22.538
 80700, 26.852
 80760, 20.269
 80820, 20.754
 80880, 18.679
 80940, 24.514
 81000, 22.178
 81060, 23.114
 81120, 26.993
 81180, 29.540
 81240, 33.837
 81300, 23.927
 81360, 22.857
 81420, 24.812
 81480, 23.212
 81540, 27.637
 81600, 24.116
 81660, 21.024
 81720, 21.400
 81780, 23.417
 81840, 23.988
 81900, 27.896
 81960, 27.516
 82020, 29.218
 82080, 22.963
 82140, 22.191
 82200, 23.867
 82260, 28.387
 82320, 26.249
 82380, 26.378
 82440, 18.150
 82500, 20.975
 82560, 18.372
 82620, 19.853
 82680, 20.319
 82740, 21.866
 82800, 16.538
 82860, 19.570
 82920, 22.937
 82980, 21.104
 83040, 20.652
 83100, 19.920
 83160, 21.433
 83220, 21.172
 83280, 16.102
 83340, 16.036
 83400, 19.109
 83460, 21.488
 83520, 17.050
 83580, 18.892
 83640, 19.219
 83700, 22.173
 83760, 21.083
 83820, 25.251
 83880, 26.660
 83940, -9999.000
 84000, 17.961
 84060, 21.238
 84120, 17.047
 84180, 19.443
 84240, 19.990
 84300, 21.764
 84360, 20.325
 84420, 18.878
 84480, 18.135
 84540, 18.095
 84600, 22.364
 84660, 16.861
 84720, 21.972
 84780, 18.084
 84840, 22.558
 84900, 21.819
 84960, 15.099
 85020, 19.261
 85080, 32.765
 85140, 30.320
 85200, 24.499
 85260, 27.492
 85320, 23.556
 85380, 18.206
 85440, 15.458
 85500, 26.814
 85560, 26.301
 85620, 15.619
 85680, 23.661
 85740, 28.768
 85800, -9999.000
 85860, 22.949
 85920, 23.328
 85980, 17.785
 86040, 19.899
 86100, 20.310
 86160, 21.761
 86220, 19.813
 86280, 19.969
 86340, 22.089
